 ar, Z=18, (Energy (eV),f1,f2)
   10.0000     -9999.00     0.949375E-15
   10.1617     -9999.00     0.964731E-15
   10.3261     -9999.00     0.980335E-15
   10.4931     -9999.00     0.996191E-15
   10.6628     -9999.00     0.101230E-14
   10.8353     -9999.00     0.102868E-14
   11.0106     -9999.00     0.104531E-14
   11.1886     -9999.00     0.106222E-14
   11.3696     -9999.00     0.107940E-14
   11.5535     -9999.00     0.109686E-14
   11.7404     -9999.00     0.111460E-14
   11.9303     -9999.00     0.113263E-14
   12.1232     -9999.00     0.115095E-14
   12.3193     -9999.00     0.116956E-14
   12.5186     -9999.00     0.118848E-14
   12.7210     -9999.00     0.120770E-14
   12.9268     -9999.00     0.122724E-14
   13.1359     -9999.00     0.124709E-14
   13.3483     -9999.00     0.126726E-14
   13.5642     -9999.00     0.128776E-14
   13.7836     -9999.00     0.130858E-14
   14.0066     -9999.00     0.132975E-14
   14.2331     -9999.00     0.135126E-14
   14.4633     -9999.00     0.137311E-14
   14.6973     -9999.00     0.139532E-14
   14.9350     -9999.00     0.141789E-14
   15.1765     -9999.00     0.144082E-14
   15.4220     -9999.00     0.146413E-14
   15.6714     -9999.00     0.148781E-14
   15.7000     -9999.00     0.149052E-14
   15.9000     -9999.00      7.37780    
   15.9249     -9999.00      7.40169    
   16.1825     -9999.00      7.65097    
   16.4442     -9999.00      7.90865    
   16.7102     -9999.00      8.17500    
   16.9805     -9999.00      8.45033    
   17.2551     -9999.00      8.71866    
   17.5342     -9999.00      8.99489    
   17.8178     -9999.00      9.27988    
   18.1060     -9999.00      9.57390    
   18.3989     -9999.00      9.87722    
   18.6964     -9999.00      10.0769    
   18.9988     -9999.00      10.2212    
   19.3061     -9999.00      10.3675    
   19.6184     -9999.00      10.5159    
   19.9357     -9999.00      10.6665    
   20.2582     -9999.00      10.8167    
   20.5858     -9999.00      10.9668    
   20.9188     -9999.00      11.1189    
   21.2571     -9999.00      11.2731    
   21.6009     -9999.00      11.4295    
   21.9503     -9999.00      11.5880    
   22.3053     -9999.00      11.7097    
   22.6661     -9999.00      11.8098    
   23.0327     -9999.00      11.9107    
   23.4053     -9999.00      12.0125    
   23.7838     -9999.00      12.1152    
   24.1685     -9999.00      12.2187    
   24.5594     -9999.00      12.3231    
   24.9566     -9999.00      12.4285    
   25.3603     -9999.00      12.5068    
   25.7705     -9999.00      12.5003    
   26.1873     -9999.00      12.4939    
   26.6109     -9999.00      12.4875    
   27.0413     -9999.00      12.4811    
   27.4786     -9999.00      12.4746    
   27.9231     -9999.00      12.4276    
   28.3747     -9999.00      12.2749    
   28.8337     -9999.00      12.1241    
   29.3000      7.16821      11.9752    
   29.7739      7.66932      11.8280    
   30.2555      8.27340      11.6127    
   30.7449      8.81707      11.2069    
   31.2421      9.21762      10.8152    
   31.7475      9.58113      10.4373    
   32.2609      9.92024      10.0726    
   32.7827      10.2556      9.72056    
   33.3130      10.6109      9.33987    
   33.8518      10.9293      8.90509    
   34.3993      11.1937      8.49054    
   34.9557      11.4568      8.09529    
   35.5211      11.7510      7.71845    
   36.0956      12.2163      7.34539    
   36.6794      12.5658      6.53408    
   37.2727      12.6642      5.81238    
   37.8755      12.8040      5.17039    
   38.4882      12.8512      4.33445    
   39.1107      12.6252      3.54127    
   39.7432      12.2858      2.89324    
   40.3861      11.9060      2.36379    
   41.0393      11.5048      1.93122    
   41.7031      11.1027      1.57782    
   42.3776      10.6932      1.29078    
   43.0630      10.3090      1.08938    
   43.7595      9.95151     0.919409    
   44.4673      9.59508     0.791494    
   45.1865      9.27243     0.726839    
   45.9174      8.98249     0.667465    
   46.6600      8.71430     0.649193    
   47.4147      8.48849     0.640955    
   48.1816      8.28327     0.632821    
   48.9609      8.09455     0.631336    
   49.7528      7.92147     0.630701    
   50.5576      7.75016     0.630240    
   51.3753      7.58985     0.648426    
   52.2062      7.44897     0.667137    
   53.0506      7.31746     0.686388    
   53.9087      7.19018     0.706194    
   54.7806      7.06923     0.733531    
   55.6667      6.95878     0.765241    
   56.5670      6.85645     0.798322    
   57.4820      6.76046     0.832833    
   58.4117      6.66879     0.868956    
   59.3564      6.58314     0.911925    
   60.3165      6.50575     0.957020    
   61.2921      6.43529      1.00435    
   62.2834      6.37198      1.05401    
   63.2908      6.31643      1.10613    
   64.3145      6.27180      1.16083    
   65.3547      6.23924      1.20753    
   66.4118      6.20776      1.24560    
   67.4859      6.17389      1.28488    
   68.5775      6.14316      1.32538    
   69.6867      6.11609      1.36717    
   70.8138      6.09323      1.41027    
   71.9591      6.08226      1.45474    
   73.1230      6.07497      1.48590    
   74.3057      6.06240      1.51689    
   75.5076      6.05142      1.54853    
   76.7289      6.04256      1.58083    
   77.9699      6.03653      1.61381    
   79.2310      6.03851      1.64747    
   80.5125      6.04560      1.67290    
   81.8147      6.04912      1.69023    
   83.1380      6.04944      1.70773    
   84.4827      6.04895      1.72541    
   85.8491      6.04836      1.74328    
   87.2377      6.04807      1.76133    
   88.6487      6.04839      1.77957    
   90.0825      6.04957      1.79800    
   91.5395      6.05193      1.81661    
   93.0201      6.05584      1.83542    
   94.5246      6.06176      1.85443    
   96.0535      6.07318      1.87363    
   97.6071      6.08987      1.88746    
   99.1858      6.10379      1.88943    
   100.790      6.11193      1.89139    
   102.420      6.11769      1.89336    
   104.077      6.12192      1.89533    
   105.760      6.12506      1.89730    
   107.471      6.12741      1.89927    
   109.209      6.12922      1.90125    
   110.975      6.13075      1.90322    
   112.770      6.13235      1.90520    
   114.594      6.13454      1.90718    
   116.448      6.13837      1.90917    
   118.331      6.14800      1.91115    
   120.245      6.16044      1.89697    
   122.190      6.16324      1.87609    
   124.166      6.15710      1.85544    
   126.175      6.14634      1.83502    
   128.215      6.13128      1.81482    
   130.289      6.11218      1.79485    
   132.397      6.08908      1.77509    
   134.538      6.06191      1.75556    
   136.714      6.02858      1.73624    
   138.925      5.99005      1.72085    
   141.172      5.95064      1.71079    
   143.456      5.91085      1.70079    
   145.776      5.86902      1.69085    
   148.134      5.82462      1.68096    
   150.530      5.77726      1.67114    
   152.964      5.72664      1.66137    
   155.439      5.67245      1.65166    
   157.953      5.61440      1.64200    
   160.507      5.55217      1.63240    
   163.103      5.48546      1.62286    
   165.742      5.41393      1.61338    
   168.422      5.33729      1.60394    
   171.146      5.25537      1.59457    
   173.915      5.16880      1.58525    
   176.727      5.07676      1.57121    
   179.586      4.97400      1.55385    
   182.491      4.85905      1.53667    
   185.442      4.73316      1.51969    
   188.442      4.59581      1.50289    
   191.489      4.44851      1.48628    
   194.587      4.28600      1.45771    
   197.734      4.09797      1.42787    
   200.932      3.88473      1.39864    
   204.182      3.64426      1.37000    
   207.485      3.37229      1.34195    
   210.840      3.06290      1.31448    
   214.251      2.70742      1.28885    
   217.716      2.29824      1.26755    
   221.237      1.82289      1.24660    
   224.816      1.25779      1.22600    
   228.452     0.569782      1.20574    
   232.147    -0.296219      1.18581    
   235.902     -1.44089      1.16544    
   239.717     -3.08671      1.14206    
   243.595     -5.87741      1.11916    
   247.535     -14.4571      1.09671    
   248.300     -25.6896      1.09244    
   248.500     -25.6342      17.6290    
   251.538     -7.08366      17.2582    
   255.607     -2.40344      16.7805    
   259.741     0.166927      16.3161    
   263.942      1.91869      15.8748    
   268.211      3.24484      15.5141    
   272.549      4.33175      15.1615    
   276.957      5.26029      14.8160    
   281.437      6.03813      14.4164    
   285.989      6.64307      14.0275    
   290.615      7.11879      13.6491    
   295.315      7.33982      13.2901    
   300.092      7.50143      13.3049    
   304.945      7.86258      13.3197    
   309.878      8.23435      13.3345    
   314.890      8.62413      13.3493    
   319.983      9.03010      13.3642    
   325.158      9.45508      13.3790    
   330.418      9.90596      13.3939    
   335.762      10.4258      13.4088    
   341.192      11.0469      13.3775    
   346.711      11.6410      13.0326    
   352.319      12.0564      12.6966    
   358.017      12.3689      12.3760    
   363.808      12.6364      12.1308    
   369.692      12.9140      11.8904    
   375.672      13.1707      11.6549    
   381.748      13.4117      11.4239    
   387.922      13.6365      11.1939    
   394.197      13.8435      10.9685    
   400.573      14.0357      10.7477    
   407.052      14.2135      10.5313    
   413.635      14.3773      10.3192    
   420.326      14.5262      10.1114    
   427.124      14.6550      9.90786    
   434.032      14.7656      9.73331    
   441.052      14.8826      9.57749    
   448.186      15.0071      9.42417    
   455.435      15.1301      9.27330    
   462.802      15.2514      9.12484    
   470.287      15.3706      8.97876    
   477.894      15.4874      8.83502    
   485.623      15.6020      8.69358    
   493.478      15.7147      8.55440    
   501.459      15.8258      8.41746    
   509.570      15.9359      8.28271    
   517.812      16.0459      8.15012    
   526.187      16.1633      8.01964    
   534.698      16.2826      7.87579    
   543.346      16.3899      7.72696    
   552.134      16.4946      7.58076    
   561.065      16.5968      7.42279    
   570.139      16.6841      7.26194    
   579.361      16.7596      7.10867    
   588.732      16.8307      6.96006    
   598.254      16.8983      6.81547    
   607.930      16.9630      6.67401    
   617.763      17.0256      6.53542    
   627.755      17.0871      6.39920    
   637.908      17.1496      6.26039    
   648.226      17.2072      6.11657    
   658.711      17.2530      5.97087    
   669.365      17.2871      5.82850    
   680.191      17.3113      5.70225    
   691.193      17.3398      5.58839    
   702.372      17.3800      5.47890    
   713.733      17.4241      5.36137    
   725.277      17.4608      5.23948    
   737.008      17.4930      5.12039    
   748.928      17.5228      5.00401    
   761.042      17.5514      4.89010    
   773.351      17.5813      4.77704    
   785.859      17.6101      4.66057    
   798.570      17.6318      4.54207    
   811.486      17.6481      4.42661    
   824.611      17.6607      4.31405    
   837.949      17.6700      4.20431    
   851.502      17.6761      4.09843    
   865.274      17.6804      3.99624    
   879.269      17.6839      3.89751    
   893.491      17.6866      3.80119    
   907.943      17.6884      3.70726    
   922.628      17.6898      3.61567    
   937.551      17.6906      3.52431    
   952.715      17.6894      3.43478    
   968.124      17.6866      3.34712    
   983.783      17.6823      3.26168    
   999.695      17.6768      3.17849    
   1015.86      17.6705      3.09750    
   1032.29      17.6641      3.01914    
   1048.99      17.6578      2.94133    
   1065.96      17.6497      2.86399    
   1083.20      17.6400      2.78871    
   1100.72      17.6292      2.71542    
   1118.52      17.6175      2.64404    
   1136.61      17.6050      2.57458    
   1155.00      17.5919      2.50691    
   1173.68      17.5781      2.44096    
   1192.66      17.5637      2.37684    
   1211.95      17.5491      2.31438    
   1231.55      17.5341      2.25354    
   1251.47      17.5191      2.19371    
   1271.72      17.5035      2.13496    
   1292.29      17.4869      2.07717    
   1313.19      17.4695      2.02085    
   1334.43      17.4513      1.96606    
   1356.01      17.4325      1.91276    
   1377.94      17.4131      1.86093    
   1400.23      17.3932      1.81053    
   1422.88      17.3728      1.76153    
   1445.89      17.3518      1.71377    
   1469.28      17.3298      1.66758    
   1493.04      17.3071      1.62309    
   1517.19      17.2841      1.58151    
   1541.73      17.2620      1.54126    
   1566.67      17.2402      1.50205    
   1592.01      17.2184      1.46378    
   1617.76      17.1965      1.42649    
   1643.92      17.1745      1.39017    
   1670.51      17.1524      1.35477    
   1697.53      17.1301      1.32027    
   1724.99      17.1078      1.28665    
   1752.89      17.0853      1.25347    
   1781.24      17.0622      1.22101    
   1810.05      17.0386      1.18927    
   1839.32      17.0145      1.15836    
   1869.07      16.9898      1.12826    
   1899.30      16.9646      1.09895    
   1930.02      16.9389      1.07039    
   1961.24      16.9126      1.04257    
   1992.96      16.8855      1.01548    
   2025.20      16.8579     0.989487    
   2057.95      16.8299     0.963460    
   2091.24      16.8006     0.938054    
   2125.06      16.7703     0.913249    
   2159.43      16.7389     0.889031    
   2194.36      16.7062     0.865379    
   2229.85      16.6721     0.842275    
   2265.92      16.6364     0.819728    
   2302.57      16.5990     0.797721    
   2339.81      16.5597     0.776210    
   2377.66      16.5182     0.755213    
   2416.11      16.4743     0.734715    
   2455.19      16.4275     0.714694    
   2494.90      16.3775     0.695152    
   2535.26      16.3237     0.676050    
   2576.26      16.2657     0.657392    
   2617.93      16.2025     0.639191    
   2660.27      16.1334     0.621397    
   2703.30      16.0570     0.604026    
   2747.03      15.9718     0.587067    
   2791.46      15.8756     0.570498    
   2836.61      15.7656     0.554313    
   2882.49      15.6374     0.538497    
   2929.11      15.4846     0.523033    
   2976.48      15.2971     0.507955    
   3024.63      15.0567     0.493219    
   3073.55      14.7273     0.478818    
   3123.26      14.2181     0.464732    
   3173.78      13.1521     0.450984    
   3205.80      6.24201     0.442589    
   3206.00      6.24309      4.24427    
   3225.11      12.6536      4.20735    
   3277.27      14.3229      4.10923    
   3330.28      15.0526      4.01218    
   3384.15      15.5322      3.91705    
   3438.88      15.8911      3.82343    
   3494.50      16.1776      3.73159    
   3551.02      16.4157      3.64110    
   3608.46      16.6183      3.55206    
   3666.82      16.7938      3.46483    
   3726.13      16.9480      3.37927    
   3786.40      17.0849      3.29525    
   3847.64      17.2072      3.21288    
   3909.87      17.3173      3.13212    
   3973.11      17.4169      3.05299    
   4037.38      17.5072      2.97543    
   4102.68      17.5894      2.89946    
   4169.03      17.6644      2.82509    
   4236.46      17.7330      2.75230    
   4304.98      17.7959      2.68108    
   4374.62      17.8535      2.61138    
   4445.37      17.9064      2.54318    
   4517.27      17.9550      2.47653    
   4590.33      17.9997      2.41134    
   4664.58      18.0407      2.34763    
   4740.03      18.0784      2.28537    
   4816.69      18.1131      2.22455    
   4894.60      18.1449      2.16515    
   4973.77      18.1741      2.10711    
   5054.21      18.2008      2.05046    
   5135.96      18.2253      1.99516    
   5219.03      18.2476      1.94116    
   5303.44      18.2681      1.88845    
   5389.22      18.2866      1.83704    
   5476.39      18.3035      1.78690    
   5564.97      18.3189      1.73800    
   5654.98      18.3327      1.69026    
   5746.44      18.3451      1.64375    
   5839.39      18.3563      1.59839    
   5933.83      18.3663      1.55414    
   6029.81      18.3751      1.51105    
   6127.33      18.3829      1.46904    
   6226.44      18.3897      1.42808    
   6327.15      18.3955      1.38820    
   6429.48      18.4005      1.34935    
   6533.48      18.4047      1.31151    
   6639.15      18.4082      1.27461    
   6746.54      18.4110      1.23868    
   6855.65      18.4130      1.20370    
   6966.54      18.4145      1.16969    
   7079.22      18.4155      1.13651    
   7193.72      18.4158      1.10426    
   7310.07      18.4158      1.07281    
   7428.31      18.4152      1.04224    
   7548.45      18.4142      1.01248    
   7670.54      18.4128     0.983540    
   7794.61      18.4110     0.955338    
   7920.68      18.4089     0.927890    
   8048.79      18.4065     0.901226    
   8178.98      18.4037     0.875280    
   8311.26      18.4007     0.850058    
   8445.69      18.3975     0.825508    
   8582.29      18.3941     0.801583    
   8721.11      18.3904     0.778350    
   8862.16      18.3865     0.755755    
   9005.50      18.3825     0.733792    
   9151.16      18.3783     0.712424    
   9299.17      18.3739     0.691653    
   9449.58      18.3695     0.671457    
   9602.42      18.3649     0.651829    
   9757.73      18.3602     0.632741    
   9915.55      18.3554     0.614198    
   10075.9      18.3505     0.596163    
   10238.9      18.3456     0.578635    
   10404.5      18.3406     0.561599    
   10572.8      18.3355     0.545041    
   10743.8      18.3304     0.528950    
   10917.6      18.3253     0.513313    
   11094.2      18.3201     0.498118    
   11273.6      18.3149     0.483353    
   11455.9      18.3097     0.469007    
   11641.2      18.3045     0.455068    
   11829.5      18.2993     0.441525    
   12020.8      18.2941     0.428368    
   12215.3      18.2889     0.415586    
   12412.8      18.2837     0.403169    
   12613.6      18.2786     0.391107    
   12817.6      18.2734     0.379390    
   13025.0      18.2683     0.368008    
   13235.6      18.2632     0.356953    
   13449.7      18.2581     0.346216    
   13667.2      18.2531     0.335787    
   13888.3      18.2481     0.325658    
   14112.9      18.2432     0.315820    
   14341.2      18.2382     0.306267    
   14573.1      18.2334     0.296989    
   14808.9      18.2286     0.287979    
   15048.4      18.2238     0.279229    
   15291.8      18.2191     0.270732    
   15539.1      18.2144     0.262482    
   15790.4      18.2098     0.254470    
   16045.8      18.2053     0.246691    
   16305.4      18.2007     0.239137    
   16569.1      18.1963     0.231803    
   16837.1      18.1919     0.224681    
   17109.4      18.1876     0.217767    
   17386.1      18.1833     0.211054    
   17667.4      18.1791     0.204536    
   17953.1      18.1749     0.198208    
   18243.5      18.1708     0.192065    
   18538.6      18.1668     0.186100    
   18838.4      18.1628     0.180310    
   19143.1      18.1589     0.174688    
   19452.7      18.1550     0.169231    
   19767.4      18.1512     0.163932    
   20087.1      18.1474     0.158795    
   20412.0      18.1437     0.153805    
   20742.1      18.1401     0.148966    
   21077.6      18.1365     0.144273    
   21418.5      18.1330     0.139723    
   21765.0      18.1295     0.135309    
   22117.0      18.1261     0.131031    
   22474.7      18.1227     0.126882    
   22838.2      18.1194     0.122859    
   23207.6      18.1162     0.118959    
   23583.0      18.1130     0.115178    
   23964.4      18.1099     0.111513    
   24352.0      18.1068     0.107960    
   24745.9      18.1038     0.104516    
   25146.2      18.1008     0.101178    
   25552.9      18.0979     0.979421E-01
   25966.2      18.0951     0.948062E-01
   26386.1      18.0923     0.917669E-01
   26812.9      18.0895     0.888216E-01
   27246.6      18.0868     0.859672E-01
   27687.3      18.0842     0.832013E-01
   28135.1      18.0816     0.805211E-01
   28590.2      18.0791     0.779241E-01
   29052.6      18.0766     0.754079E-01
   29522.5      18.0742     0.729699E-01
   30000.0      18.0718     0.706080E-01
