 be, Z= 4, (Energy (eV),f1,f2)
   10.0000     -9999.00     0.398134    
   10.1617     -9999.00     0.407934    
   10.3261     -9999.00     0.417975    
   10.4931     -9999.00     0.428263    
   10.6628     -9999.00     0.438804    
   10.8353     -9999.00     0.449604    
   11.0106     -9999.00     0.460217    
   11.1886     -9999.00     0.467574    
   11.3696     -9999.00     0.475049    
   11.5535     -9999.00     0.482651    
   11.7404     -9999.00     0.490468    
   11.9303     -9999.00     0.498411    
   12.1232     -9999.00     0.506506    
   12.3193     -9999.00     0.514745    
   12.5186     -9999.00     0.519710    
   12.7210     -9999.00     0.524527    
   12.9268     -9999.00     0.529388    
   13.1359     -9999.00     0.533988    
   13.3483     -9999.00     0.536420    
   13.5642     -9999.00     0.538862    
   13.7836     -9999.00     0.541382    
   14.0066     -9999.00     0.544467    
   14.2331     -9999.00     0.547569    
   14.4633     -9999.00     0.550030    
   14.6973     -9999.00     0.552100    
   14.9350     -9999.00     0.554176    
   15.1765     -9999.00     0.556607    
   15.4220     -9999.00     0.559129    
   15.6714     -9999.00     0.561662    
   15.9249     -9999.00     0.563425    
   16.1825     -9999.00     0.564956    
   16.4442     -9999.00     0.566492    
   16.7102     -9999.00     0.565608    
   16.9805     -9999.00     0.562546    
   17.2551     -9999.00     0.559501    
   17.5342     -9999.00     0.556472    
   17.8178     -9999.00     0.553415    
   18.1060     -9999.00     0.550372    
   18.3989     -9999.00     0.547346    
   18.6964     -9999.00     0.544766    
   18.9988     -9999.00     0.542359    
   19.3061     -9999.00     0.539963    
   19.6184     -9999.00     0.537577    
   19.9357     -9999.00     0.532883    
   20.2582     -9999.00     0.528060    
   20.5858     -9999.00     0.523282    
   20.9188     -9999.00     0.518790    
   21.2571     -9999.00     0.514914    
   21.6009     -9999.00     0.511068    
   21.9503     -9999.00     0.507250    
   22.3053     -9999.00     0.503461    
   22.6661     -9999.00     0.499701    
   23.0327     -9999.00     0.495968    
   23.4053     -9999.00     0.492263    
   23.7838     -9999.00     0.488586    
   24.1685     -9999.00     0.484936    
   24.5594     -9999.00     0.481314    
   24.9566     -9999.00     0.477718    
   25.3603     -9999.00     0.474150    
   25.7705     -9999.00     0.470608    
   26.1873     -9999.00     0.467093    
   26.6109     -9999.00     0.463603    
   27.0413     -9999.00     0.460141    
   27.4786     -9999.00     0.456703    
   27.9231     -9999.00     0.453292    
   28.3747     -9999.00     0.449905    
   28.8337     -9999.00     0.446545    
   29.3000      1.78392     0.443209    
   29.7739      1.78619     0.440577    
   30.2555      1.78894     0.438415    
   30.7449      1.79184     0.436264    
   31.2421      1.79477     0.434123    
   31.7475      1.79771     0.431993    
   32.2609      1.80063     0.429873    
   32.7827      1.80351     0.427764    
   33.3130      1.80636     0.425665    
   33.8518      1.80917     0.423576    
   34.3993      1.81195     0.421498    
   34.9557      1.81469     0.419430    
   35.5211      1.81741     0.417372    
   36.0956      1.82013     0.415324    
   36.6794      1.82288     0.413286    
   37.2727      1.82573     0.411258    
   37.8755      1.82883     0.409241    
   38.4882      1.83271     0.406912    
   39.1107      1.83607     0.402694    
   39.7432      1.83846     0.398520    
   40.3861      1.84026     0.394389    
   41.0393      1.84164     0.390301    
   41.7031      1.84265     0.386255    
   42.3776      1.84333     0.382251    
   43.0630      1.84369     0.378288    
   43.7595      1.84375     0.374367    
   44.4673      1.84352     0.370486    
   45.1865      1.84300     0.366646    
   45.9174      1.84220     0.362845    
   46.6600      1.84111     0.359084    
   47.4147      1.83975     0.355362    
   48.1816      1.83811     0.351678    
   48.9609      1.83621     0.348033    
   49.7528      1.83405     0.344425    
   50.5576      1.83168     0.340855    
   51.3753      1.82924     0.337244    
   52.2062      1.82637     0.333149    
   53.0506      1.82296     0.329103    
   53.9087      1.81912     0.325107    
   54.7806      1.81491     0.321160    
   55.6667      1.81043     0.317260    
   56.5670      1.80599     0.313408    
   57.4820      1.80107     0.308206    
   58.4117      1.79497     0.302970    
   59.3564      1.78794     0.297823    
   60.3165      1.78014     0.292764    
   61.2921      1.77158     0.287790    
   62.2834      1.76226     0.282901    
   63.2908      1.75216     0.278095    
   64.3145      1.74127     0.273371    
   65.3547      1.72955     0.268727    
   66.4118      1.71697     0.264162    
   67.4859      1.70347     0.259674    
   68.5775      1.68902     0.255263    
   69.6867      1.67354     0.250926    
   70.8138      1.65698     0.246664    
   71.9591      1.63926     0.242473    
   73.1230      1.62029     0.238354    
   74.3057      1.59998     0.234305    
   75.5076      1.57822     0.230325    
   76.7289      1.55489     0.226412    
   77.9699      1.52984     0.222566    
   79.2310      1.50292     0.218785    
   80.5125      1.47394     0.215068    
   81.8147      1.44270     0.211414    
   83.1380      1.40894     0.207823    
   84.4827      1.37241     0.204292    
   85.8491      1.33277     0.200822    
   87.2377      1.28973     0.197410    
   88.6487      1.24320     0.194008    
   90.0825      1.19163     0.188958    
   91.5395      1.13380     0.184039    
   93.0201      1.06903     0.179248    
   94.5246     0.996280     0.174582    
   96.0535     0.914013     0.170037    
   97.6071     0.820150     0.165611    
   99.1858     0.711812     0.161300    
   100.790     0.584880     0.157101    
   102.420     0.433182     0.153011    
   104.077     0.246849     0.149028    
   105.760     0.859302E-02 0.145149    
   107.471    -0.316509     0.141370    
   109.209    -0.819304     0.137690    
   110.975     -1.95607     0.134106    
   111.600     -3.68317     0.132874    
   111.800     -3.71547      2.79011    
   112.770     -1.80050      2.88199    
   114.594     -1.03772      3.06065    
   116.448    -0.647346      3.25039    
   118.331    -0.352768      3.45189    
   120.245    -0.852938E-01  3.66589    
   122.190     0.191651      3.89315    
   124.166     0.526998      4.13449    
   126.175     0.901788      4.30069    
   128.215      1.33218      4.46690    
   130.289      1.84515      4.50954    
   132.397      2.45528      4.48878    
   134.538      2.99166      3.97828    
   136.714      3.00577      3.49585    
   138.925      2.95608      3.22871    
   141.172      2.90972      3.12887    
   143.456      2.91905      3.07172    
   145.776      2.96150      3.01561    
   148.134      3.00741      2.96053    
   150.530      3.04782      2.91521    
   152.964      3.09830      2.88034    
   155.439      3.15603      2.84589    
   157.953      3.21732      2.81186    
   160.507      3.28594      2.77823    
   163.103      3.35586      2.73050    
   165.742      3.41679      2.67935    
   168.422      3.47260      2.62916    
   171.146      3.52493      2.57991    
   173.915      3.57449      2.53158    
   176.727      3.62175      2.48416    
   179.586      3.66716      2.43763    
   182.491      3.71131      2.39196    
   185.442      3.75618      2.34578    
   188.442      3.79694      2.29644    
   191.489      3.83426      2.24813    
   194.587      3.86897      2.20084    
   197.734      3.90157      2.15455    
   200.932      3.93229      2.10922    
   204.182      3.96133      2.06486    
   207.485      3.98887      2.02142    
   210.840      4.01504      1.97890    
   214.251      4.03999      1.93727    
   217.716      4.06385      1.89652    
   221.237      4.08676      1.85663    
   224.816      4.10888      1.81757    
   228.452      4.13041      1.77934    
   232.147      4.15165      1.74191    
   235.902      4.17319      1.70527    
   239.717      4.19759      1.66890    
   243.595      4.21916      1.62506    
   247.535      4.23679      1.58238    
   251.538      4.25163      1.54083    
   255.607      4.26461      1.50036    
   259.741      4.27605      1.46095    
   263.942      4.28617      1.42258    
   268.211      4.29512      1.38522    
   272.549      4.30302      1.34884    
   276.957      4.30997      1.31342    
   281.437      4.31606      1.27892    
   285.989      4.32135      1.24533    
   290.615      4.32591      1.21263    
   295.315      4.32978      1.18078    
   300.092      4.33301      1.14977    
   304.945      4.33560      1.11957    
   309.878      4.33752      1.09017    
   314.890      4.33862      1.06196    
   319.983      4.33968      1.03493    
   325.158      4.34068      1.00857    
   330.418      4.34144     0.982895    
   335.762      4.34199     0.957879    
   341.192      4.34231     0.933502    
   346.711      4.34244     0.909753    
   352.319      4.34241     0.886606    
   358.017      4.34220     0.864038    
   363.808      4.34187     0.842061    
   369.692      4.34147     0.820640    
   375.672      4.34104     0.799753    
   381.748      4.34069     0.779400    
   387.922      4.34072     0.759289    
   394.197      4.34074     0.739100    
   400.573      4.34043     0.718469    
   407.052      4.33923     0.698036    
   413.635      4.33747     0.678186    
   420.326      4.33533     0.658904    
   427.124      4.33291     0.640170    
   434.032      4.33024     0.621962    
   441.052      4.32738     0.604274    
   448.186      4.32440     0.587076    
   455.435      4.32126     0.570302    
   462.802      4.31797     0.553961    
   470.287      4.31452     0.538064    
   477.894      4.31094     0.522621    
   485.623      4.30727     0.507623    
   493.478      4.30351     0.493056    
   501.459      4.29969     0.478909    
   509.570      4.29581     0.465162    
   517.812      4.29185     0.451825    
   526.187      4.28787     0.438924    
   534.698      4.28391     0.426483    
   543.346      4.28007     0.414437    
   552.134      4.27645     0.402734    
   561.065      4.27294     0.390883    
   570.139      4.26911     0.379178    
   579.361      4.26510     0.367948    
   588.732      4.26106     0.357094    
   598.254      4.25705     0.346587    
   607.930      4.25308     0.336400    
   617.763      4.24919     0.326505    
   627.755      4.24546     0.316873    
   637.908      4.24185     0.307247    
   648.226      4.23817     0.297505    
   658.711      4.23403     0.287810    
   669.365      4.22936     0.278431    
   680.191      4.22431     0.270158    
   691.193      4.21971     0.262736    
   702.372      4.21600     0.255658    
   713.733      4.21267     0.248183    
   725.277      4.20908     0.240533    
   737.008      4.20536     0.233130    
   748.928      4.20161     0.225953    
   761.042      4.19786     0.218997    
   773.351      4.19415     0.212248    
   785.859      4.19046     0.205674    
   798.570      4.18676     0.199278    
   811.486      4.18308     0.193085    
   824.611      4.17942     0.187081    
   837.949      4.17578     0.181261    
   851.502      4.17215     0.175669    
   865.274      4.16858     0.170290    
   879.269      4.16509     0.165111    
   893.491      4.16170     0.160090    
   907.943      4.15838     0.155222    
   922.628      4.15518     0.150502    
   937.551      4.15202     0.145811    
   952.715      4.14889     0.141239    
   968.124      4.14576     0.136786    
   983.783      4.14265     0.132473    
   999.695      4.13956     0.128287    
   1015.86      4.13650     0.124282    
   1032.29      4.13352     0.120403    
   1048.99      4.13058     0.116645    
   1065.96      4.12770     0.113004    
   1083.20      4.12487     0.109477    
   1100.72      4.12209     0.106060    
   1118.52      4.11936     0.102750    
   1136.61      4.11668     0.995429E-01
   1155.00      4.11405     0.964359E-01
   1173.68      4.11147     0.934261E-01
   1192.66      4.10894     0.905101E-01
   1211.95      4.10646     0.876851E-01
   1231.55      4.10403     0.849484E-01
   1251.47      4.10164     0.822969E-01
   1271.72      4.09931     0.797283E-01
   1292.29      4.09702     0.772398E-01
   1313.19      4.09477     0.748291E-01
   1334.43      4.09258     0.724936E-01
   1356.01      4.09043     0.702309E-01
   1377.94      4.08833     0.680389E-01
   1400.23      4.08627     0.659153E-01
   1422.88      4.08426     0.638580E-01
   1445.89      4.08229     0.618648E-01
   1469.28      4.08038     0.599340E-01
   1493.04      4.07853     0.580634E-01
   1517.19      4.07672     0.562083E-01
   1541.73      4.07493     0.543956E-01
   1566.67      4.07315     0.526414E-01
   1592.01      4.07141     0.509438E-01
   1617.76      4.06971     0.493008E-01
   1643.92      4.06803     0.477109E-01
   1670.51      4.06639     0.461723E-01
   1697.53      4.06478     0.446833E-01
   1724.99      4.06321     0.432423E-01
   1752.89      4.06167     0.418477E-01
   1781.24      4.06016     0.404982E-01
   1810.05      4.05868     0.391921E-01
   1839.32      4.05724     0.379282E-01
   1869.07      4.05583     0.367050E-01
   1899.30      4.05446     0.355213E-01
   1930.02      4.05312     0.343758E-01
   1961.24      4.05181     0.332672E-01
   1992.96      4.05054     0.321944E-01
   2025.20      4.04930     0.311312E-01
   2057.95      4.04808     0.300964E-01
   2091.24      4.04688     0.290960E-01
   2125.06      4.04570     0.281288E-01
   2159.43      4.04454     0.271938E-01
   2194.36      4.04341     0.262898E-01
   2229.85      4.04230     0.254159E-01
   2265.92      4.04122     0.245711E-01
   2302.57      4.04016     0.237543E-01
   2339.81      4.03913     0.229647E-01
   2377.66      4.03812     0.222014E-01
   2416.11      4.03713     0.214634E-01
   2455.19      4.03616     0.207499E-01
   2494.90      4.03522     0.200602E-01
   2535.26      4.03430     0.193933E-01
   2576.26      4.03341     0.187487E-01
   2617.93      4.03253     0.181255E-01
   2660.27      4.03167     0.175230E-01
   2703.30      4.03084     0.169405E-01
   2747.03      4.03003     0.163774E-01
   2791.46      4.02923     0.158330E-01
   2836.61      4.02846     0.153067E-01
   2882.49      4.02770     0.147979E-01
   2929.11      4.02697     0.143060E-01
   2976.48      4.02625     0.138305E-01
   3024.63      4.02556     0.133645E-01
   3073.55      4.02488     0.129085E-01
   3123.26      4.02421     0.124679E-01
   3173.78      4.02356     0.120425E-01
   3225.11      4.02293     0.116316E-01
   3277.27      4.02230     0.112347E-01
   3330.28      4.02170     0.108513E-01
   3384.15      4.02110     0.104810E-01
   3438.88      4.02052     0.101233E-01
   3494.50      4.01996     0.977786E-02
   3551.02      4.01941     0.944423E-02
   3608.46      4.01887     0.912194E-02
   3666.82      4.01835     0.881066E-02
   3726.13      4.01784     0.851001E-02
   3786.40      4.01735     0.821960E-02
   3847.64      4.01686     0.793914E-02
   3909.87      4.01639     0.766821E-02
   3973.11      4.01593     0.740654E-02
   4037.38      4.01549     0.715149E-02
   4102.68      4.01505     0.690366E-02
   4169.03      4.01463     0.666438E-02
   4236.46      4.01421     0.643341E-02
   4304.98      4.01381     0.621045E-02
   4374.62      4.01341     0.599521E-02
   4445.37      4.01303     0.578744E-02
   4517.27      4.01265     0.558684E-02
   4590.33      4.01229     0.539322E-02
   4664.58      4.01193     0.520631E-02
   4740.03      4.01159     0.502587E-02
   4816.69      4.01125     0.485169E-02
   4894.60      4.01092     0.468353E-02
   4973.77      4.01060     0.452121E-02
   5054.21      4.01029     0.436330E-02
   5135.96      4.00999     0.421033E-02
   5219.03      4.00969     0.406272E-02
   5303.44      4.00941     0.392028E-02
   5389.22      4.00913     0.378285E-02
   5476.39      4.00885     0.365022E-02
   5564.97      4.00859     0.352225E-02
   5654.98      4.00833     0.339876E-02
   5746.44      4.00808     0.327961E-02
   5839.39      4.00783     0.316463E-02
   5933.83      4.00759     0.305368E-02
   6029.81      4.00736     0.294623E-02
   6127.33      4.00714     0.284174E-02
   6226.44      4.00692     0.274094E-02
   6327.15      4.00670     0.264373E-02
   6429.48      4.00649     0.254996E-02
   6533.48      4.00629     0.245951E-02
   6639.15      4.00609     0.237228E-02
   6746.54      4.00590     0.228814E-02
   6855.65      4.00571     0.220698E-02
   6966.54      4.00553     0.212870E-02
   7079.22      4.00535     0.205320E-02
   7193.72      4.00518     0.198037E-02
   7310.07      4.00501     0.191013E-02
   7428.31      4.00485     0.184238E-02
   7548.45      4.00469     0.177703E-02
   7670.54      4.00454     0.171400E-02
   7794.61      4.00439     0.165321E-02
   7920.68      4.00424     0.159457E-02
   8048.79      4.00410     0.153779E-02
   8178.98      4.00396     0.148265E-02
   8311.26      4.00383     0.142949E-02
   8445.69      4.00370     0.137824E-02
   8582.29      4.00357     0.132882E-02
   8721.11      4.00345     0.128118E-02
   8862.16      4.00333     0.123525E-02
   9005.50      4.00321     0.119096E-02
   9151.16      4.00309     0.114826E-02
   9299.17      4.00298     0.110709E-02
   9449.58      4.00288     0.106740E-02
   9602.42      4.00277     0.102913E-02
   9757.73      4.00267     0.992234E-03
   9915.55      4.00257     0.956657E-03
   10075.9      4.00248     0.922385E-03
   10238.9      4.00238     0.889326E-03
   10404.5      4.00229     0.857435E-03
   10572.8      4.00220     0.826670E-03
   10743.8      4.00212     0.796994E-03
   10917.6      4.00203     0.768367E-03
   11094.2      4.00195     0.740753E-03
   11273.6      4.00187     0.714114E-03
   11455.9      4.00180     0.688420E-03
   11641.2      4.00172     0.663634E-03
   11829.5      4.00165     0.639724E-03
   12020.8      4.00158     0.616663E-03
   12215.3      4.00151     0.594417E-03
   12412.8      4.00145     0.572960E-03
   12613.6      4.00138     0.552263E-03
   12817.6      4.00132     0.532301E-03
   13025.0      4.00126     0.513046E-03
   13235.6      4.00120     0.494476E-03
   13449.7      4.00114     0.476565E-03
   13667.2      4.00109     0.459289E-03
   13888.3      4.00103     0.442629E-03
   14112.9      4.00098     0.426561E-03
   14341.2      4.00093     0.411065E-03
   14573.1      4.00088     0.396121E-03
   14808.9      4.00083     0.381710E-03
   15048.4      4.00079     0.367813E-03
   15291.8      4.00074     0.354413E-03
   15539.1      4.00070     0.341491E-03
   15790.4      4.00065     0.329031E-03
   16045.8      4.00061     0.317018E-03
   16305.4      4.00057     0.305435E-03
   16569.1      4.00053     0.294267E-03
   16837.1      4.00049     0.283500E-03
   17109.4      4.00046     0.273121E-03
   17386.1      4.00042     0.263115E-03
   17667.4      4.00039     0.253470E-03
   17953.1      4.00035     0.244172E-03
   18243.5      4.00032     0.235210E-03
   18538.6      4.00029     0.226573E-03
   18838.4      4.00026     0.218248E-03
   19143.1      4.00023     0.210225E-03
   19452.7      4.00020     0.202493E-03
   19767.4      4.00017     0.195043E-03
   20087.1      4.00014     0.187868E-03
   20412.0      4.00011     0.180955E-03
   20742.1      4.00009     0.174299E-03
   21077.6      4.00006     0.167890E-03
   21418.5      4.00004     0.161720E-03
   21765.0      4.00001     0.155777E-03
   22117.0      3.99999     0.150055E-03
   22474.7      3.99997     0.144545E-03
   22838.2      3.99995     0.139239E-03
   23207.6      3.99992     0.134129E-03
   23583.0      3.99990     0.129207E-03
   23964.4      3.99988     0.124467E-03
   24352.0      3.99986     0.119902E-03
   24745.9      3.99985     0.115505E-03
   25146.2      3.99983     0.111270E-03
   25552.9      3.99981     0.107191E-03
   25966.2      3.99979     0.103261E-03
   26386.1      3.99978     0.994763E-04
   26812.9      3.99976     0.958302E-04
   27246.6      3.99974     0.923179E-04
   27687.3      3.99973     0.889344E-04
   28135.1      3.99971     0.856748E-04
   28590.2      3.99970     0.825347E-04
   29052.6      3.99969     0.795095E-04
   29522.5      3.99967     0.765949E-04
   30000.0      3.99966     0.737870E-04
