 c , Z= 6, (Energy (eV),f1,f2)
   10.0000     -9999.00     0.806885    
   10.1617     -9999.00     0.851522    
   10.3261     -9999.00     0.898628    
   10.4931     -9999.00     0.948341    
   10.6628     -9999.00      1.00080    
   10.8353     -9999.00      1.05755    
   11.0106     -9999.00      1.12167    
   11.1886     -9999.00      1.18968    
   11.3696     -9999.00      1.26181    
   11.5535     -9999.00      1.33832    
   11.7404     -9999.00      1.41946    
   11.9303     -9999.00      1.50553    
   12.1232     -9999.00      1.58971    
   12.3193     -9999.00      1.67820    
   12.5186     -9999.00      1.77161    
   12.7210     -9999.00      1.87023    
   12.9268     -9999.00      1.97433    
   13.1359     -9999.00      2.08423    
   13.3483     -9999.00      2.20025    
   13.5642     -9999.00      2.29235    
   13.7836     -9999.00      2.38287    
   14.0066     -9999.00      2.47696    
   14.2331     -9999.00      2.57477    
   14.4633     -9999.00      2.67645    
   14.6973     -9999.00      2.77114    
   14.9350     -9999.00      2.84605    
   15.1765     -9999.00      2.92298    
   15.4220     -9999.00      3.00199    
   15.6714     -9999.00      3.08313    
   15.9249     -9999.00      3.16647    
   16.1825     -9999.00      3.24213    
   16.4442     -9999.00      3.28778    
   16.7102     -9999.00      3.33408    
   16.9805     -9999.00      3.38103    
   17.2551     -9999.00      3.42863    
   17.5342     -9999.00      3.47691    
   17.8178     -9999.00      3.52041    
   18.1060     -9999.00      3.54277    
   18.3989     -9999.00      3.56528    
   18.6964     -9999.00      3.58793    
   18.9988     -9999.00      3.61072    
   19.3061     -9999.00      3.63366    
   19.6184     -9999.00      3.65674    
   19.9357     -9999.00      3.67997    
   20.2582     -9999.00      3.70335    
   20.5858     -9999.00      3.69489    
   20.9188     -9999.00      3.67204    
   21.2571     -9999.00      3.64934    
   21.6009     -9999.00      3.62677    
   21.9503     -9999.00      3.60434    
   22.3053     -9999.00      3.58205    
   22.6661     -9999.00      3.55990    
   23.0327     -9999.00      3.53320    
   23.4053     -9999.00      3.47892    
   23.7838     -9999.00      3.42547    
   24.1685     -9999.00      3.37285    
   24.5594     -9999.00      3.32103    
   24.9566     -9999.00      3.27000    
   25.3603     -9999.00      3.21977    
   25.7705     -9999.00      3.17030    
   26.1873     -9999.00      3.12096    
   26.6109     -9999.00      3.06350    
   27.0413     -9999.00      3.00708    
   27.4786     -9999.00      2.95171    
   27.9231     -9999.00      2.89736    
   28.3747     -9999.00      2.84401    
   28.8337     -9999.00      2.79164    
   29.3000      3.63318      2.74024    
   29.7739      3.67378      2.68978    
   30.2555      3.71270      2.63618    
   30.7449      3.74753      2.58360    
   31.2421      3.77973      2.53206    
   31.7475      3.80969      2.48155    
   32.2609      3.83764      2.43205    
   32.7827      3.86374      2.38354    
   33.3130      3.88807      2.33599    
   33.8518      3.91071      2.28940    
   34.3993      3.93156      2.24373    
   34.9557      3.95026      2.19898    
   35.5211      3.96709      2.15799    
   36.0956      3.98488      2.11827    
   36.6794      4.00253      2.07928    
   37.2727      4.01992      2.04101    
   37.8755      4.03712      2.00344    
   38.4882      4.05432      1.96657    
   39.1107      4.07360      1.93037    
   39.7432      4.09449      1.89011    
   40.3861      4.11010      1.84650    
   41.0393      4.12229      1.80390    
   41.7031      4.13211      1.76228    
   42.3776      4.13985      1.72163    
   43.0630      4.14559      1.68191    
   43.7595      4.14925      1.64310    
   44.4673      4.14955      1.60520    
   45.1865      4.14584      1.56917    
   45.9174      4.14175      1.54376    
   46.6600      4.14174      1.51876    
   47.4147      4.14300      1.49417    
   48.1816      4.14486      1.46998    
   48.9609      4.14698      1.44618    
   49.7528      4.14913      1.42276    
   50.5576      4.15113      1.39972    
   51.3753      4.15277      1.37705    
   52.2062      4.15371      1.35475    
   53.0506      4.15307      1.33282    
   53.9087      4.14960      1.31546    
   54.7806      4.14997      1.30168    
   55.6667      4.15270      1.28804    
   56.5670      4.15681      1.27454    
   57.4820      4.16209      1.26118    
   58.4117      4.16851      1.24797    
   59.3564      4.17625      1.23489    
   60.3165      4.18600      1.22195    
   61.2921      4.19949      1.20654    
   62.2834      4.21096      1.18498    
   63.2908      4.21910      1.16381    
   64.3145      4.22582      1.14301    
   65.3547      4.23161      1.12258    
   66.4118      4.23666      1.10252    
   67.4859      4.24111      1.08282    
   68.5775      4.24504      1.06347    
   69.6867      4.24852      1.04447    
   70.8138      4.25160      1.02580    
   71.9591      4.25430      1.00747    
   73.1230      4.25667     0.989470    
   74.3057      4.25872     0.971788    
   75.5076      4.26047     0.954423    
   76.7289      4.26194     0.937369    
   77.9699      4.26314     0.920617    
   79.2310      4.26408     0.904167    
   80.5125      4.26478     0.888009    
   81.8147      4.26524     0.872141    
   83.1380      4.26546     0.856556    
   84.4827      4.26547     0.841250    
   85.8491      4.26525     0.826217    
   87.2377      4.26481     0.811453    
   88.6487      4.26417     0.796952    
   90.0825      4.26332     0.782711    
   91.5395      4.26226     0.768724    
   93.0201      4.26100     0.754987    
   94.5246      4.25953     0.741496    
   96.0535      4.25787     0.728246    
   97.6071      4.25600     0.715232    
   99.1858      4.25393     0.702451    
   100.790      4.25166     0.689898    
   102.420      4.24919     0.677570    
   104.077      4.24651     0.665462    
   105.760      4.24363     0.653570    
   107.471      4.24054     0.641891    
   109.209      4.23724     0.630421    
   110.975      4.23373     0.619156    
   112.770      4.23000     0.608091    
   114.594      4.22606     0.597224    
   116.448      4.22189     0.586552    
   118.331      4.21751     0.576071    
   120.245      4.21289     0.565777    
   122.190      4.20806     0.555666    
   124.166      4.20299     0.545737    
   126.175      4.19772     0.535985    
   128.215      4.19225     0.526406    
   130.289      4.18666     0.517000    
   132.397      4.18122     0.507761    
   134.538      4.17533     0.497457    
   136.714      4.16860     0.487361    
   138.925      4.16122     0.477469    
   141.172      4.15329     0.467777    
   143.456      4.14484     0.458283    
   145.776      4.13587     0.448981    
   148.134      4.12638     0.439868    
   150.530      4.11636     0.430941    
   152.964      4.10578     0.422193    
   155.439      4.09464     0.413624    
   157.953      4.08290     0.405229    
   160.507      4.07054     0.397004    
   163.103      4.05754     0.388946    
   165.742      4.04385     0.381052    
   168.422      4.02945     0.373318    
   171.146      4.01429     0.365741    
   173.915      3.99834     0.358317    
   176.727      3.98158     0.351045    
   179.586      3.96398     0.343919    
   182.491      3.94558     0.336939    
   185.442      3.92716     0.330100    
   188.442      3.90705     0.320995    
   191.489      3.88443     0.312096    
   194.587      3.85977     0.303443    
   197.734      3.83308     0.295031    
   200.932      3.80428     0.286851    
   204.182      3.77323     0.278898    
   207.485      3.73972     0.271166    
   210.840      3.70351     0.263648    
   214.251      3.66428     0.256338    
   217.716      3.62164     0.249231    
   221.237      3.57499     0.242516    
   224.816      3.52435     0.236381    
   228.452      3.46902     0.230402    
   232.147      3.40812     0.224573    
   235.902      3.34061     0.218892    
   239.717      3.26522     0.213355    
   243.595      3.18027     0.207958    
   247.535      3.08474     0.202179    
   251.538      2.97293     0.194683    
   255.607      2.84002     0.187465    
   259.741      2.67985     0.180514    
   263.942      2.48138     0.173821    
   268.211      2.22505     0.167377    
   272.549      1.87159     0.161171    
   276.957      1.32192     0.155195    
   281.437     0.158573     0.149441    
   284.100     -4.04882     0.146163    
   284.300     -4.04031      4.18872    
   285.989    -0.283330      4.15857    
   290.615      1.43967      4.07798    
   295.315      2.20576      3.99896    
   300.092      2.71286      3.92146    
   304.945      3.09475      3.84546    
   309.878      3.40186      3.77095    
   314.890      3.65884      3.69787    
   319.983      3.87969      3.62620    
   325.158      4.07315      3.55593    
   330.418      4.24510      3.48703    
   335.762      4.39967      3.41945    
   341.192      4.53993      3.35318    
   346.711      4.66823      3.28820    
   352.319      4.78642      3.22448    
   358.017      4.89606      3.16200    
   363.808      4.99852      3.10072    
   369.692      5.09524      3.04063    
   375.672      5.18910      2.98170    
   381.748      5.27926      2.91649    
   387.922      5.36049      2.84817    
   394.197      5.43267      2.78144    
   400.573      5.49897      2.71628    
   407.052      5.56010      2.65264    
   413.635      5.61669      2.59050    
   420.326      5.66920      2.52981    
   427.124      5.71803      2.47054    
   434.032      5.76351      2.41266    
   441.052      5.80593      2.35614    
   448.186      5.84557      2.30094    
   455.435      5.88264      2.24703    
   462.802      5.91737      2.19439    
   470.287      5.94998      2.14298    
   477.894      5.98074      2.09278    
   485.623      6.01022      2.04367    
   493.478      6.03767      1.99418    
   501.459      6.06268      1.94589    
   509.570      6.08579      1.89876    
   517.812      6.10721      1.85278    
   526.187      6.12709      1.80791    
   534.698      6.14556      1.76412    
   543.346      6.16271      1.72140    
   552.134      6.17864      1.67971    
   561.065      6.19344      1.63903    
   570.139      6.20717      1.59933    
   579.361      6.21992      1.56060    
   588.732      6.23174      1.52281    
   598.254      6.24271      1.48593    
   607.930      6.25287      1.44994    
   617.763      6.26227      1.41483    
   627.755      6.27097      1.38056    
   637.908      6.27900      1.34713    
   648.226      6.28639      1.31450    
   658.711      6.29312      1.28267    
   669.365      6.29901      1.25160    
   680.191      6.30406      1.22249    
   691.193      6.30972      1.19523    
   702.372      6.31822      1.16897    
   713.733      6.32783      1.13958    
   725.277      6.33449      1.10844    
   737.008      6.33933      1.07816    
   748.928      6.34306      1.04871    
   761.042      6.34594      1.02006    
   773.351      6.34813     0.992182    
   785.859      6.34973     0.965046    
   798.570      6.35080     0.938635    
   811.486      6.35140     0.912939    
   824.611      6.35160     0.887954    
   837.949      6.35148     0.863661    
   851.502      6.35111     0.839923    
   865.274      6.35042     0.816714    
   879.269      6.34934     0.794041    
   893.491      6.34793     0.772006    
   907.943      6.34628     0.750584    
   922.628      6.34445     0.729761    
   937.551      6.34244     0.709358    
   952.715      6.34016     0.689500    
   968.124      6.33768     0.670177    
   983.783      6.33503     0.651378    
   999.695      6.33222     0.633116    
   1015.86      6.32930     0.615377    
   1032.29      6.32643     0.598194    
   1048.99      6.32362     0.581226    
   1065.96      6.32048     0.564459    
   1083.20      6.31710     0.548198    
   1100.72      6.31359     0.532391    
   1118.52      6.30996     0.517020    
   1136.61      6.30622     0.502116    
   1155.00      6.30242     0.487640    
   1173.68      6.29857     0.473579    
   1192.66      6.29469     0.459933    
   1211.95      6.29081     0.446675    
   1231.55      6.28694     0.433794    
   1251.47      6.28313     0.421175    
   1271.72      6.27931     0.408804    
   1292.29      6.27534     0.396652    
   1313.19      6.27127     0.384872    
   1334.43      6.26716     0.373439    
   1356.01      6.26302     0.362342    
   1377.94      6.25886     0.351578    
   1400.23      6.25469     0.341132    
   1422.88      6.25054     0.330994    
   1445.89      6.24640     0.321159    
   1469.28      6.24230     0.311605    
   1493.04      6.23822     0.302316    
   1517.19      6.23418     0.293230    
   1541.73      6.23010     0.284407    
   1566.67      6.22604     0.275847    
   1592.01      6.22200     0.267545    
   1617.76      6.21798     0.259493    
   1643.92      6.21400     0.251684    
   1670.51      6.21005     0.244110    
   1697.53      6.20616     0.236764    
   1724.99      6.20233     0.229642    
   1752.89      6.19857     0.222665    
   1781.24      6.19480     0.215877    
   1810.05      6.19106     0.209279    
   1839.32      6.18734     0.202884    
   1869.07      6.18366     0.196685    
   1899.30      6.18003     0.190676    
   1930.02      6.17643     0.184850    
   1961.24      6.17288     0.179202    
   1992.96      6.16938     0.173726    
   2025.20      6.16594     0.168474    
   2057.95      6.16261     0.163292    
   2091.24      6.15928     0.158263    
   2125.06      6.15600     0.153384    
   2159.43      6.15276     0.148648    
   2194.36      6.14957     0.144053    
   2229.85      6.14643     0.139593    
   2265.92      6.14334     0.135267    
   2302.57      6.14028     0.131069    
   2339.81      6.13729     0.126998    
   2377.66      6.13433     0.123042    
   2416.11      6.13143     0.119210    
   2455.19      6.12857     0.115492    
   2494.90      6.12576     0.111882    
   2535.26      6.12300     0.108383    
   2576.26      6.12028     0.104990    
   2617.93      6.11762     0.101694    
   2660.27      6.11500     0.985042E-01
   2703.30      6.11243     0.954028E-01
   2747.03      6.10990     0.923971E-01
   2791.46      6.10742     0.894832E-01
   2836.61      6.10498     0.866617E-01
   2882.49      6.10259     0.839148E-01
   2929.11      6.10024     0.812599E-01
   2976.48      6.09794     0.786821E-01
   3024.63      6.09569     0.761825E-01
   3073.55      6.09347     0.737584E-01
   3123.26      6.09130     0.714080E-01
   3173.78      6.08917     0.691288E-01
   3225.11      6.08708     0.669194E-01
   3277.27      6.08503     0.647767E-01
   3330.28      6.08302     0.626991E-01
   3384.15      6.08105     0.606853E-01
   3438.88      6.07912     0.587327E-01
   3494.50      6.07723     0.568396E-01
   3551.02      6.07538     0.550042E-01
   3608.46      6.07357     0.532244E-01
   3666.82      6.07179     0.514997E-01
   3726.13      6.07005     0.498278E-01
   3786.40      6.06834     0.482071E-01
   3847.64      6.06667     0.466352E-01
   3909.87      6.06504     0.451127E-01
   3973.11      6.06343     0.436367E-01
   4037.38      6.06186     0.422212E-01
   4102.68      6.06033     0.408351E-01
   4169.03      6.05883     0.394919E-01
   4236.46      6.05736     0.381921E-01
   4304.98      6.05592     0.369324E-01
   4374.62      6.05451     0.357130E-01
   4445.37      6.05313     0.345329E-01
   4517.27      6.05178     0.333896E-01
   4590.33      6.05046     0.322825E-01
   4664.58      6.04917     0.312100E-01
   4740.03      6.04791     0.301723E-01
   4816.69      6.04667     0.291678E-01
   4894.60      6.04547     0.281953E-01
   4973.77      6.04429     0.272539E-01
   5054.21      6.04313     0.263428E-01
   5135.96      6.04200     0.254606E-01
   5219.03      6.04090     0.246074E-01
   5303.44      6.03983     0.237810E-01
   5389.22      6.03877     0.229809E-01
   5476.39      6.03774     0.222063E-01
   5564.97      6.03674     0.214569E-01
   5654.98      6.03576     0.207329E-01
   5746.44      6.03480     0.200314E-01
   5839.39      6.03386     0.193522E-01
   5933.83      6.03295     0.186948E-01
   6029.81      6.03205     0.180595E-01
   6127.33      6.03118     0.174453E-01
   6226.44      6.03033     0.168501E-01
   6327.15      6.02950     0.162746E-01
   6429.48      6.02869     0.157180E-01
   6533.48      6.02789     0.151795E-01
   6639.15      6.02712     0.146587E-01
   6746.54      6.02637     0.141549E-01
   6855.65      6.02563     0.136678E-01
   6966.54      6.02491     0.131966E-01
   7079.22      6.02421     0.127407E-01
   7193.72      6.02352     0.123000E-01
   7310.07      6.02285     0.118738E-01
   7428.31      6.02220     0.114619E-01
   7548.45      6.02156     0.110634E-01
   7670.54      6.02094     0.106782E-01
   7794.61      6.02034     0.103059E-01
   7920.68      6.01975     0.994583E-02
   8048.79      6.01917     0.959775E-02
   8178.98      6.01861     0.926134E-02
   8311.26      6.01806     0.893624E-02
   8445.69      6.01753     0.862190E-02
   8582.29      6.01700     0.831820E-02
   8721.11      6.01650     0.802475E-02
   8862.16      6.01600     0.774104E-02
   9005.50      6.01552     0.746686E-02
   9151.16      6.01505     0.720204E-02
   9299.17      6.01459     0.694614E-02
   9449.58      6.01414     0.669902E-02
   9602.42      6.01370     0.646026E-02
   9757.73      6.01328     0.622938E-02
   9915.55      6.01286     0.600659E-02
   10075.9      6.01246     0.579136E-02
   10238.9      6.01206     0.558350E-02
   10404.5      6.01168     0.538276E-02
   10572.8      6.01131     0.518891E-02
   10743.8      6.01094     0.500173E-02
   10917.6      6.01059     0.482101E-02
   11094.2      6.01024     0.464654E-02
   11273.6      6.00991     0.447810E-02
   11455.9      6.00958     0.431552E-02
   11641.2      6.00926     0.415859E-02
   11829.5      6.00895     0.400712E-02
   12020.8      6.00864     0.386096E-02
   12215.3      6.00835     0.371991E-02
   12412.8      6.00806     0.358382E-02
   12613.6      6.00778     0.345251E-02
   12817.6      6.00751     0.332584E-02
   13025.0      6.00724     0.320365E-02
   13235.6      6.00698     0.308580E-02
   13449.7      6.00673     0.297213E-02
   13667.2      6.00648     0.286252E-02
   13888.3      6.00625     0.275683E-02
   14112.9      6.00601     0.265492E-02
   14341.2      6.00579     0.255668E-02
   14573.1      6.00557     0.246198E-02
   14808.9      6.00535     0.237071E-02
   15048.4      6.00514     0.228275E-02
   15291.8      6.00494     0.219799E-02
   15539.1      6.00474     0.211632E-02
   15790.4      6.00455     0.203764E-02
   16045.8      6.00436     0.196186E-02
   16305.4      6.00418     0.188887E-02
   16569.1      6.00400     0.181858E-02
   16837.1      6.00383     0.175089E-02
   17109.4      6.00366     0.168574E-02
   17386.1      6.00350     0.162301E-02
   17667.4      6.00334     0.156265E-02
   17953.1      6.00319     0.150455E-02
   18243.5      6.00304     0.144866E-02
   18538.6      6.00289     0.139489E-02
   18838.4      6.00275     0.134317E-02
   19143.1      6.00261     0.129343E-02
   19452.7      6.00248     0.124561E-02
   19767.4      6.00235     0.119964E-02
   20087.1      6.00222     0.116295E-02
   20412.0      6.00211     0.111818E-02
   20742.1      6.00199     0.107519E-02
   21077.6      6.00187     0.103391E-02
   21418.5      6.00176     0.994268E-03
   21765.0      6.00165     0.956195E-03
   22117.0      6.00154     0.919629E-03
   22474.7      6.00144     0.884508E-03
   22838.2      6.00134     0.850771E-03
   23207.6      6.00124     0.818364E-03
   23583.0      6.00115     0.787230E-03
   23964.4      6.00105     0.757320E-03
   24352.0      6.00096     0.728582E-03
   24745.9      6.00088     0.700971E-03
   25146.2      6.00079     0.674438E-03
   25552.9      6.00071     0.648942E-03
   25966.2      6.00063     0.624439E-03
   26386.1      6.00055     0.600890E-03
   26812.9      6.00048     0.578257E-03
   27246.6      6.00040     0.556501E-03
   27687.3      6.00033     0.535590E-03
   28135.1      6.00026     0.515487E-03
   28590.2      6.00020     0.496161E-03
   29052.6      6.00013     0.477581E-03
   29522.5      6.00007     0.459716E-03
   30000.0      6.00000     0.442540E-03
