 cl, Z=17, (Energy (eV),f1,f2)
   10.0000     -9999.00      1.46938    
   10.1617     -9999.00      1.69220    
   10.3261     -9999.00      1.94880    
   10.4931     -9999.00      2.24432    
   10.6628     -9999.00      2.51303    
   10.8353     -9999.00      2.73153    
   11.0106     -9999.00      2.95549    
   11.1886     -9999.00      3.19416    
   11.3696     -9999.00      3.48881    
   11.5535     -9999.00      3.87618    
   11.7404     -9999.00      4.14416    
   11.9303     -9999.00      4.41407    
   12.1232     -9999.00      4.70156    
   12.3193     -9999.00      4.91582    
   12.5186     -9999.00      5.13087    
   12.7210     -9999.00      5.35533    
   12.9268     -9999.00      5.57204    
   13.1359     -9999.00      5.78353    
   13.3483     -9999.00      6.00304    
   13.5642     -9999.00      6.22540    
   13.7836     -9999.00      6.42563    
   14.0066     -9999.00      6.63229    
   14.2331     -9999.00      6.84561    
   14.4633     -9999.00      7.06523    
   14.6973     -9999.00      7.25268    
   14.9350     -9999.00      7.44510    
   15.1765     -9999.00      7.64264    
   15.4220     -9999.00      7.82750    
   15.6714     -9999.00      7.96238    
   15.9249     -9999.00      8.09958    
   16.1825     -9999.00      8.23914    
   16.4442     -9999.00      8.37683    
   16.7102     -9999.00      8.51461    
   16.9805     -9999.00      8.65466    
   17.2551     -9999.00      8.79701    
   17.5342     -9999.00      8.94170    
   17.8178     -9999.00      9.08877    
   18.1060     -9999.00      9.23827    
   18.3989     -9999.00      9.39023    
   18.6964     -9999.00      9.54467    
   18.9988     -9999.00      9.70167    
   19.3061     -9999.00      9.86124    
   19.6184     -9999.00      9.92421    
   19.9357     -9999.00      9.89076    
   20.2582     -9999.00      9.85742    
   20.5858     -9999.00      9.82420    
   20.9188     -9999.00      9.79108    
   21.2571     -9999.00      9.75807    
   21.6009     -9999.00      9.72518    
   21.9503     -9999.00      9.69240    
   22.3053     -9999.00      9.65973    
   22.6661     -9999.00      9.62716    
   23.0327     -9999.00      9.57623    
   23.4053     -9999.00      9.33842    
   23.7838     -9999.00      9.10653    
   24.1685     -9999.00      8.88038    
   24.5594     -9999.00      8.65986    
   24.9566     -9999.00      8.44481    
   25.3603     -9999.00      8.13178    
   25.7705     -9999.00      7.76956    
   26.1873     -9999.00      7.42345    
   26.6109     -9999.00      7.09277    
   27.0413     -9999.00      6.77682    
   27.4786     -9999.00      6.47493    
   27.9231     -9999.00      6.18650    
   28.3747     -9999.00      5.91091    
   28.8337     -9999.00      5.58156    
   29.3000      9.94411      5.20522    
   29.7739      9.99265      4.85425    
   30.2555      10.0178      4.52694    
   30.7449      10.0328      4.22171    
   31.2421      10.0544      3.93705    
   31.7475      10.1253      3.66007    
   32.2609      10.1438      3.22012    
   32.7827      10.0587      2.83305    
   33.3130      9.92498      2.49251    
   33.8518      9.76783      2.19290    
   34.3993      9.59654      1.92930    
   34.9557      9.41675      1.70061    
   35.5211      9.23839      1.50120    
   36.0956      9.06224      1.32517    
   36.6794      8.89042      1.16979    
   37.2727      8.72973      1.03262    
   37.8755      8.58277     0.882572    
   38.4882      8.40510     0.739600    
   39.1107      8.21396     0.619793    
   39.7432      8.01658     0.530227    
   40.3861      7.82891     0.460211    
   41.0393      7.63232     0.406707    
   41.7031      7.45700     0.403132    
   42.3776      7.30842     0.399590    
   43.0630      7.17379     0.394518    
   43.7595      7.04043     0.388766    
   44.4673      6.91370     0.403715    
   45.1865      6.80125     0.419899    
   45.9174      6.69754     0.436731    
   46.6600      6.59760     0.456765    
   47.4147      6.50635     0.482148    
   48.1816      6.42237     0.508941    
   48.9609      6.34452     0.537223    
   49.7528      6.27232     0.567077    
   50.5576      6.20586     0.598591    
   51.3753      6.14666     0.630882    
   52.2062      6.09073     0.659237    
   53.0506      6.03667     0.688866    
   53.9087      5.98520     0.719826    
   54.7806      5.93669     0.752177    
   55.6667      5.89126     0.785984    
   56.5670      5.84909     0.821309    
   57.4820      5.81041     0.858222    
   58.4117      5.77576     0.896794    
   59.3564      5.74638     0.937099    
   60.3165      5.72492     0.974146    
   61.2921      5.70206      1.00751    
   62.2834      5.68014      1.04202    
   63.2908      5.66026      1.07771    
   64.3145      5.64307      1.11463    
   65.3547      5.62920      1.15281    
   66.4118      5.61957      1.19229    
   67.4859      5.61600      1.23313    
   68.5775      5.62469      1.27537    
   69.6867      5.63561      1.29388    
   70.8138      5.64002      1.31261    
   71.9591      5.64157      1.33160    
   73.1230      5.64279      1.35088    
   74.3057      5.64451      1.37042    
   75.5076      5.64760      1.39026    
   76.7289      5.65370      1.41038    
   77.9699      5.66715      1.42454    
   79.2310      5.67395      1.43088    
   80.5125      5.67739      1.43726    
   81.8147      5.67907      1.44366    
   83.1380      5.67961      1.45009    
   84.4827      5.67939      1.45655    
   85.8491      5.67883      1.46304    
   87.2377      5.67884      1.46956    
   88.6487      5.67918      1.47311    
   90.0825      5.67685      1.47525    
   91.5395      5.67283      1.47739    
   93.0201      5.66756      1.47953    
   94.5246      5.66122      1.48168    
   96.0535      5.65393      1.48383    
   97.6071      5.64579      1.48598    
   99.1858      5.63692      1.48814    
   100.790      5.62752      1.49030    
   102.420      5.61796      1.49246    
   104.077      5.60976      1.49462    
   105.760      5.60269      1.49039    
   107.471      5.59010      1.48328    
   109.209      5.57321      1.47620    
   110.975      5.55340      1.46915    
   112.770      5.53084      1.46214    
   114.594      5.50558      1.45516    
   116.448      5.47760      1.44821    
   118.331      5.44686      1.44130    
   120.245      5.41327      1.43442    
   122.190      5.37671      1.42758    
   124.166      5.33706      1.42076    
   126.175      5.29416      1.41398    
   128.215      5.24787      1.40723    
   130.289      5.19815      1.40051    
   132.397      5.14586      1.39296    
   134.538      5.08787      1.38370    
   136.714      5.02406      1.37449    
   138.925      4.95459      1.36535    
   141.172      4.87907      1.35626    
   143.456      4.79704      1.34724    
   145.776      4.70792      1.33827    
   148.134      4.61105      1.32937    
   150.530      4.50569      1.32053    
   152.964      4.39108      1.31174    
   155.439      4.26771      1.30301    
   157.953      4.13122      1.28921    
   160.507      3.97786      1.27520    
   163.103      3.80660      1.26134    
   165.742      3.61506      1.24763    
   168.422      3.39989      1.23407    
   171.146      3.15662      1.22066    
   173.915      2.87929      1.20741    
   176.727      2.55971      1.19429    
   179.586      2.18624      1.18132    
   182.491      1.74165      1.16849    
   185.442      1.19875      1.15580    
   188.442     0.510952      1.14325    
   191.489    -0.412386      1.13083    
   194.587     -1.78902      1.11855    
   197.734     -4.44567      1.10640    
   199.900     -13.8452      1.09822    
   200.100     -13.8680      10.4682    
   200.932     -7.26444      10.5209    
   204.182     -2.86107      10.7273    
   207.485     -1.11739      10.9378    
   210.840     0.542504E-01  11.1524    
   214.251      1.01005      11.3712    
   217.716      1.91454      11.4950    
   221.237      2.65192      11.5179    
   224.816      3.26308      11.5409    
   228.452      3.80792      11.5639    
   232.147      4.30391      11.5868    
   235.902      4.76334      11.6099    
   239.717      5.19489      11.6330    
   243.595      5.60502      11.6563    
   247.535      5.99886      11.6795    
   251.538      6.38069      11.7027    
   255.607      6.75433      11.7260    
   259.741      7.12375      11.7494    
   263.942      7.49351      11.7728    
   268.211      7.86961      11.7962    
   272.549      8.27133      11.8197    
   276.957      8.71665      11.7925    
   281.437      9.12886      11.7015    
   285.989      9.50259      11.5712    
   290.615      9.83486      11.4367    
   295.315      10.1410      11.3038    
   300.092      10.4278      11.1726    
   304.945      10.6989      11.0428    
   309.878      10.9566      10.9145    
   314.890      11.2029      10.7877    
   319.983      11.4390      10.6624    
   325.158      11.6664      10.5385    
   330.418      11.8860      10.4162    
   335.762      12.0989      10.2952    
   341.192      12.3058      10.1756    
   346.711      12.5076      10.0574    
   352.319      12.7050      9.94051    
   358.017      12.8993      9.82514    
   363.808      13.0917      9.71102    
   369.692      13.2836      9.59816    
   375.672      13.4771      9.48652    
   381.748      13.6767      9.37632    
   387.922      13.9158      9.24352    
   394.197      14.1180      9.06027    
   400.573      14.2829      8.88851    
   407.052      14.4382      8.72306    
   413.635      14.5896      8.56070    
   420.326      14.7332      8.39399    
   427.124      14.8698      8.22747    
   434.032      14.9953      8.05822    
   441.052      15.1105      7.89234    
   448.186      15.2189      7.72948    
   455.435      15.3204      7.56838    
   462.802      15.4155      7.41007    
   470.287      15.5050      7.25479    
   477.894      15.5907      7.10271    
   485.623      15.6720      6.95011    
   493.478      15.7471      6.79940    
   501.459      15.8171      6.65193    
   509.570      15.8828      6.50656    
   517.812      15.9446      6.36357    
   526.187      16.0019      6.22270    
   534.698      16.0553      6.08451    
   543.346      16.1056      5.94889    
   552.134      16.1518      5.81481    
   561.065      16.1943      5.68384    
   570.139      16.2344      5.55569    
   579.361      16.2713      5.42920    
   588.732      16.3051      5.30562    
   598.254      16.3366      5.18474    
   607.930      16.3654      5.06583    
   617.763      16.3919      4.94954    
   627.755      16.4165      4.83576    
   637.908      16.4390      4.72373    
   648.226      16.4592      4.61412    
   658.711      16.4779      4.50688    
   669.365      16.4946      4.40115    
   680.191      16.5093      4.29780    
   691.193      16.5227      4.19667    
   702.372      16.5343      4.09694    
   713.733      16.5439      3.99951    
   725.277      16.5520      3.90435    
   737.008      16.5589      3.81139    
   748.928      16.5647      3.72021    
   761.042      16.5692      3.63085    
   773.351      16.5724      3.54315    
   785.859      16.5742      3.45748    
   798.570      16.5751      3.37378    
   811.486      16.5749      3.29172    
   824.611      16.5738      3.21132    
   837.949      16.5712      3.13255    
   851.502      16.5678      3.05628    
   865.274      16.5641      2.98154    
   879.269      16.5598      2.90833    
   893.491      16.5543      2.83610    
   907.943      16.5478      2.76591    
   922.628      16.5414      2.69771    
   937.551      16.5342      2.62978    
   952.715      16.5257      2.56347    
   968.124      16.5160      2.49876    
   983.783      16.5061      2.43663    
   999.695      16.4962      2.37544    
   1015.86      16.4853      2.31518    
   1032.29      16.4738      2.25657    
   1048.99      16.4618      2.19941    
   1065.96      16.4493      2.14367    
   1083.20      16.4365      2.08937    
   1100.72      16.4234      2.03624    
   1118.52      16.4098      1.98418    
   1136.61      16.3958      1.93325    
   1155.00      16.3812      1.88364    
   1173.68      16.3662      1.83532    
   1192.66      16.3511      1.78817    
   1211.95      16.3357      1.74200    
   1231.55      16.3197      1.69670    
   1251.47      16.3032      1.65259    
   1271.72      16.2863      1.60964    
   1292.29      16.2692      1.56781    
   1313.19      16.2516      1.52683    
   1334.43      16.2336      1.48690    
   1356.01      16.2152      1.44802    
   1377.94      16.1964      1.41017    
   1400.23      16.1774      1.37324    
   1422.88      16.1578      1.33716    
   1445.89      16.1378      1.30207    
   1469.28      16.1173      1.26789    
   1493.04      16.0960      1.23458    
   1517.19      16.0743      1.20298    
   1541.73      16.0526      1.17234    
   1566.67      16.0307      1.14255    
   1592.01      16.0086      1.11352    
   1617.76      15.9862      1.08522    
   1643.92      15.9633      1.05765    
   1670.51      15.9401      1.03077    
   1697.53      15.9163      1.00458    
   1724.99      15.8922     0.979056    
   1752.89      15.8675     0.953791    
   1781.24      15.8420     0.929050    
   1810.05      15.8156     0.904856    
   1839.32      15.7883     0.881295    
   1869.07      15.7600     0.858348    
   1899.30      15.7307     0.836001    
   1930.02      15.7004     0.814232    
   1961.24      15.6688     0.793030    
   1992.96      15.6400     0.772376    
   2025.20      15.6045     0.742744    
   2057.95      15.5631     0.722827    
   2091.24      15.5215     0.703634    
   2125.06      15.4784     0.684894    
   2159.43      15.4329     0.666586    
   2194.36      15.3845     0.648702    
   2229.85      15.3326     0.631215    
   2265.92      15.2766     0.614141    
   2302.57      15.2157     0.597456    
   2339.81      15.1491     0.581146    
   2377.66      15.0756     0.565200    
   2416.11      14.9936     0.549622    
   2455.19      14.9010     0.534411    
   2494.90      14.7952     0.519541    
   2535.26      14.6719     0.505004    
   2576.26      14.5253     0.490797    
   2617.93      14.3455     0.476902    
   2660.27      14.1156     0.463341    
   2703.30      13.8020     0.450062    
   2747.03      13.3219     0.437092    
   2791.46      12.3484     0.424409    
   2822.30      5.68102     0.415937    
   2822.50      5.68236      4.11507    
   2836.61      11.5499      4.08546    
   2882.49      13.3286      3.99160    
   2929.11      14.0620      3.89901    
   2976.48      14.5387      3.80795    
   3024.63      14.8940      3.71842    
   3073.55      15.1772      3.63008    
   3123.26      15.4119      3.54327    
   3173.78      15.6117      3.45790    
   3225.11      15.7849      3.37405    
   3277.27      15.9371      3.29165    
   3330.28      16.0722      3.21065    
   3384.15      16.1930      3.13124    
   3438.88      16.3018      3.05337    
   3494.50      16.4002      2.97701    
   3551.02      16.4896      2.90215    
   3608.46      16.5711      2.82872    
   3666.82      16.6454      2.75678    
   3726.13      16.7135      2.68634    
   3786.40      16.7760      2.61735    
   3847.64      16.8333      2.54981    
   3909.87      16.8859      2.48372    
   3973.11      16.9343      2.41907    
   4037.38      16.9789      2.35580    
   4102.68      17.0199      2.29396    
   4169.03      17.0575      2.23348    
   4236.46      17.0922      2.17440    
   4304.98      17.1241      2.11664    
   4374.62      17.1534      2.06020    
   4445.37      17.1802      2.00508    
   4517.27      17.2048      1.95125    
   4590.33      17.2274      1.89871    
   4664.58      17.2481      1.84738    
   4740.03      17.2669      1.79729    
   4816.69      17.2840      1.74840    
   4894.60      17.2996      1.70074    
   4973.77      17.3137      1.65419    
   5054.21      17.3264      1.60881    
   5135.96      17.3378      1.56455    
   5219.03      17.3481      1.52142    
   5303.44      17.3572      1.47931    
   5389.22      17.3653      1.43831    
   5476.39      17.3724      1.39832    
   5564.97      17.3786      1.35936    
   5654.98      17.3839      1.32139    
   5746.44      17.3884      1.28442    
   5839.39      17.3922      1.24835    
   5933.83      17.3953      1.21326    
   6029.81      17.3977      1.17905    
   6127.33      17.3995      1.14578    
   6226.44      17.4007      1.11333    
   6327.15      17.4014      1.08177    
   6429.48      17.4016      1.05104    
   6533.48      17.4014      1.02114    
   6639.15      17.4007     0.991990    
   6746.54      17.3996     0.963658    
   6855.65      17.3981     0.936072    
   6966.54      17.3963     0.909242    
   7079.22      17.3942     0.883124    
   7193.72      17.3917     0.857693    
   7310.07      17.3890     0.832967    
   7428.31      17.3861     0.808936    
   7548.45      17.3829     0.785542    
   7670.54      17.3795     0.762805    
   7794.61      17.3759     0.740674    
   7920.68      17.3721     0.719133    
   8048.79      17.3682     0.698207    
   8178.98      17.3641     0.677863    
   8311.26      17.3598     0.658099    
   8445.69      17.3555     0.638867    
   8582.29      17.3510     0.620175    
   8721.11      17.3465     0.601998    
   8862.16      17.3419     0.584334    
   9005.50      17.3371     0.567166    
   9151.16      17.3324     0.550470    
   9299.17      17.3275     0.534254    
   9449.58      17.3226     0.518495    
   9602.42      17.3177     0.503175    
   9757.73      17.3128     0.488293    
   9915.55      17.3078     0.473831    
   10075.9      17.3028     0.459779    
   10238.9      17.2978     0.446128    
   10404.5      17.2928     0.432865    
   10572.8      17.2877     0.419979    
   10743.8      17.2827     0.407462    
   10917.6      17.2777     0.395303    
   11094.2      17.2727     0.383492    
   11273.6      17.2678     0.372020    
   11455.9      17.2628     0.360877    
   11641.2      17.2579     0.350055    
   11829.5      17.2530     0.339544    
   12020.8      17.2481     0.329336    
   12215.3      17.2433     0.319422    
   12412.8      17.2385     0.309795    
   12613.6      17.2338     0.300447    
   12817.6      17.2291     0.291369    
   13025.0      17.2244     0.282554    
   13235.6      17.2198     0.273995    
   13449.7      17.2152     0.265684    
   13667.2      17.2107     0.257615    
   13888.3      17.2062     0.249780    
   14112.9      17.2018     0.242174    
   14341.2      17.1975     0.234790    
   14573.1      17.1932     0.227620    
   14808.9      17.1889     0.220660    
   15048.4      17.1847     0.213904    
   15291.8      17.1806     0.207345    
   15539.1      17.1765     0.200977    
   15790.4      17.1724     0.194796    
   16045.8      17.1685     0.188797    
   16305.4      17.1646     0.182973    
   16569.1      17.1607     0.177320    
   16837.1      17.1569     0.171833    
   17109.4      17.1532     0.166507    
   17386.1      17.1495     0.161337    
   17667.4      17.1458     0.156320    
   17953.1      17.1423     0.151450    
   18243.5      17.1388     0.146723    
   18538.6      17.1353     0.142136    
   18838.4      17.1319     0.137683    
   19143.1      17.1286     0.133362    
   19452.7      17.1253     0.129168    
   19767.4      17.1221     0.125098    
   20087.1      17.1189     0.121156    
   20412.0      17.1157     0.117324    
   20742.1      17.1127     0.113609    
   21077.6      17.1097     0.110007    
   21418.5      17.1067     0.106515    
   21765.0      17.1038     0.103129    
   22117.0      17.1009     0.998466E-01
   22474.7      17.0981     0.966649E-01
   22838.2      17.0953     0.935805E-01
   23207.6      17.0926     0.905909E-01
   23583.0      17.0900     0.876930E-01
   23964.4      17.0874     0.848845E-01
   24352.0      17.0848     0.821624E-01
   24745.9      17.0823     0.795244E-01
   25146.2      17.0799     0.769679E-01
   25552.9      17.0775     0.744905E-01
   25966.2      17.0751     0.720900E-01
   26386.1      17.0728     0.697638E-01
   26812.9      17.0705     0.675100E-01
   27246.6      17.0683     0.653262E-01
   27687.3      17.0661     0.632106E-01
   28135.1      17.0640     0.611608E-01
   28590.2      17.0619     0.591751E-01
   29052.6      17.0599     0.572516E-01
   29522.5      17.0579     0.553882E-01
   30000.0      17.0559     0.535833E-01
