 cr, Z=24, (Energy (eV),f1,f2)
   10.0000     -9999.00      1.05700    
   10.1617     -9999.00      1.10362    
   10.3261     -9999.00      1.15229    
   10.4931     -9999.00      1.20311    
   10.6628     -9999.00      1.25618    
   10.8353     -9999.00      1.31158    
   11.0106     -9999.00      1.36943    
   11.1886     -9999.00      1.42916    
   11.3696     -9999.00      1.48789    
   11.5535     -9999.00      1.54903    
   11.7404     -9999.00      1.61268    
   11.9303     -9999.00      1.67895    
   12.1232     -9999.00      1.74794    
   12.3193     -9999.00      1.81977    
   12.5186     -9999.00      1.89455    
   12.7210     -9999.00      1.97240    
   12.9268     -9999.00      2.05236    
   13.1359     -9999.00      2.13557    
   13.3483     -9999.00      2.22215    
   13.5642     -9999.00      2.31224    
   13.7836     -9999.00      2.40598    
   14.0066     -9999.00      2.50733    
   14.2331     -9999.00      2.62058    
   14.4633     -9999.00      2.73896    
   14.6973     -9999.00      2.86268    
   14.9350     -9999.00      2.99199    
   15.1765     -9999.00      3.08350    
   15.4220     -9999.00      3.16751    
   15.6714     -9999.00      3.25382    
   15.9249     -9999.00      3.34248    
   16.1825     -9999.00      3.43354    
   16.4442     -9999.00      3.52710    
   16.7102     -9999.00      3.59513    
   16.9805     -9999.00      3.66139    
   17.2551     -9999.00      3.72887    
   17.5342     -9999.00      3.79760    
   17.8178     -9999.00      3.86759    
   18.1060     -9999.00      3.92324    
   18.3989     -9999.00      3.95920    
   18.6964     -9999.00      3.99549    
   18.9988     -9999.00      4.03212    
   19.3061     -9999.00      4.06908    
   19.6184     -9999.00      4.09684    
   19.9357     -9999.00      4.11996    
   20.2582     -9999.00      4.14321    
   20.5858     -9999.00      4.16660    
   20.9188     -9999.00      4.19012    
   21.2571     -9999.00      4.21377    
   21.6009     -9999.00      4.22197    
   21.9503     -9999.00      4.21016    
   22.3053     -9999.00      4.19839    
   22.6661     -9999.00      4.18665    
   23.0327     -9999.00      4.17494    
   23.4053     -9999.00      4.16326    
   23.7838     -9999.00      4.09688    
   24.1685     -9999.00      4.02779    
   24.5594     -9999.00      3.95986    
   24.9566     -9999.00      3.89307    
   25.3603     -9999.00      3.82742    
   25.7705     -9999.00      3.76287    
   26.1873     -9999.00      3.69941    
   26.6109     -9999.00      3.60958    
   27.0413     -9999.00      3.49735    
   27.4786     -9999.00      3.38860    
   27.9231     -9999.00      3.28324    
   28.3747     -9999.00      3.18115    
   28.8337     -9999.00      3.08224    
   29.3000      5.94228      2.99004    
   29.7739      5.92909      2.90494    
   30.2555      5.91066      2.82226    
   30.7449      5.88584      2.74194    
   31.2421      5.85426      2.66391    
   31.7475      5.81498      2.58809    
   32.2609      5.76680      2.51723    
   32.7827      5.71465      2.45041    
   33.3130      5.65654      2.38537    
   33.8518      5.59119      2.32205    
   34.3993      5.51781      2.26041    
   34.9557      5.43535      2.19986    
   35.5211      5.34156      2.14059    
   36.0956      5.23454      2.08292    
   36.6794      5.11068      2.02681    
   37.2727      4.95964      1.97220    
   37.8755      4.78766      1.95578    
   38.4882      4.61222      1.94496    
   39.1107      4.41976      1.95116    
   39.7432      4.20694      1.96248    
   40.3861      3.97362      2.02151    
   41.0393      3.73477      2.08911    
   41.7031      3.45148      2.17520    
   42.3776      3.15242      2.32257    
   43.0630      2.79750      2.47993    
   43.7595      2.38498      2.84366    
   44.4673      2.08271      3.32968    
   45.1865      1.87212      3.89876    
   45.9174      1.78945      4.56510    
   46.6600      1.99022      5.31171    
   47.4147      2.28007      5.65963    
   48.1816      2.49180      6.03034    
   48.9609      2.71114      6.42532    
   49.7528      3.03331      6.79536    
   50.5576      3.33199      7.05016    
   51.3753      3.61502      7.31451    
   52.2062      3.92170      7.58878    
   53.0506      4.31249      7.82634    
   53.9087      4.66887      7.96298    
   54.7806      5.00459      8.10200    
   55.6667      5.34916      8.24346    
   56.5670      5.74622      8.38738    
   57.4820      6.19199      8.39766    
   58.4117      6.56095      8.36152    
   59.3564      6.89643      8.32554    
   60.3165      7.24600      8.28970    
   61.2921      7.57809      8.15699    
   62.2834      7.85549      8.02193    
   63.2908      8.09935      7.88911    
   64.3145      8.32623      7.75848    
   65.3547      8.55190      7.63002    
   66.4118      8.76200      7.45443    
   67.4859      8.92629      7.27327    
   68.5775      9.05755      7.09652    
   69.6867      9.15240      6.92522    
   70.8138      9.23368      6.79165    
   71.9591      9.31173      6.66065    
   73.1230      9.37710      6.53218    
   74.3057      9.41811      6.40618    
   75.5076      9.44981      6.32254    
   76.7289      9.49426      6.24629    
   77.9699      9.54040      6.17096    
   79.2310      9.58365      6.09654    
   80.5125      9.61905      6.02301    
   81.8147      9.63156      5.96361    
   83.1380      9.65991      5.92864    
   84.4827      9.69895      5.89387    
   85.8491      9.74104      5.85932    
   87.2377      9.78465      5.82496    
   88.6487      9.82892      5.79081    
   90.0825      9.87370      5.75585    
   91.5395      9.91600      5.71998    
   93.0201      9.95535      5.68432    
   94.5246      9.99094      5.64889    
   96.0535      10.0205      5.61369    
   97.6071      10.0356      5.57869    
   99.1858      10.0506      5.57753    
   100.790      10.0773      5.57754    
   102.420      10.1105      5.57756    
   104.077      10.1454      5.57757    
   105.760      10.1797      5.57758    
   107.471      10.2062      5.57760    
   109.209      10.2353      5.60496    
   110.975      10.2786      5.63469    
   112.770      10.3327      5.66458    
   114.594      10.3946      5.69462    
   116.448      10.4646      5.72483    
   118.331      10.5453      5.75519    
   120.245      10.6527      5.77467    
   122.190      10.7479      5.76624    
   124.166      10.8324      5.75783    
   126.175      10.9144      5.74942    
   128.215      10.9957      5.74103    
   130.289      11.0781      5.73265    
   132.397      11.1672      5.72428    
   134.538      11.2537      5.69934    
   136.714      11.3329      5.67447    
   138.925      11.4084      5.64972    
   141.172      11.4814      5.62507    
   143.456      11.5523      5.60052    
   145.776      11.6210      5.57609    
   148.134      11.6855      5.55414    
   150.530      11.7530      5.53664    
   152.964      11.8225      5.51919    
   155.439      11.8936      5.50180    
   157.953      11.9667      5.48446    
   160.507      12.0425      5.46718    
   163.103      12.1227      5.44995    
   165.742      12.2154      5.43278    
   168.422      12.3185      5.38959    
   171.146      12.4014      5.32982    
   173.915      12.4721      5.27070    
   176.727      12.5352      5.21224    
   179.586      12.5919      5.15443    
   182.491      12.6427      5.09727    
   185.442      12.6869      5.04073    
   188.442      12.7182      4.98483    
   191.489      12.7453      4.94959    
   194.587      12.7813      4.92015    
   197.734      12.8212      4.89088    
   200.932      12.8632      4.86178    
   204.182      12.9066      4.83286    
   207.485      12.9513      4.80412    
   210.840      12.9977      4.77554    
   214.251      13.0468      4.74713    
   217.716      13.1045      4.71436    
   221.237      13.1547      4.66923    
   224.816      13.1992      4.62453    
   228.452      13.2403      4.58026    
   232.147      13.2787      4.53640    
   235.902      13.3151      4.49297    
   239.717      13.3497      4.44996    
   243.595      13.3826      4.40736    
   247.535      13.4142      4.36517    
   251.538      13.4455      4.32337    
   255.607      13.4751      4.27973    
   259.741      13.5024      4.23643    
   263.942      13.5281      4.19356    
   268.211      13.5526      4.15114    
   272.549      13.5762      4.10913    
   276.957      13.5998      4.06757    
   281.437      13.6254      4.02641    
   285.989      13.6546      3.97627    
   290.615      13.6753      3.91967    
   295.315      13.6883      3.86388    
   300.092      13.6971      3.80888    
   304.945      13.7024      3.75467    
   309.878      13.7052      3.70108    
   314.890      13.7041      3.64593    
   319.983      13.6990      3.59160    
   325.158      13.6904      3.53808    
   330.418      13.6788      3.48536    
   335.762      13.6649      3.43342    
   341.192      13.6502      3.38225    
   346.711      13.6403      3.32358    
   352.319      13.6177      3.25457    
   358.017      13.5822      3.18699    
   363.808      13.5385      3.12082    
   369.692      13.4868      3.05602    
   375.672      13.4271      2.99257    
   381.748      13.3567      2.93128    
   387.922      13.2802      2.87576    
   394.197      13.1979      2.82130    
   400.573      13.1076      2.76786    
   407.052      13.0080      2.71544    
   413.635      12.8961      2.66401    
   420.326      12.7722      2.62216    
   427.124      12.6426      2.58535    
   434.032      12.5059      2.54906    
   441.052      12.3581      2.51328    
   448.186      12.1973      2.47800    
   455.435      12.0211      2.44321    
   462.802      11.8276      2.40891    
   470.287      11.6128      2.37331    
   477.894      11.3718      2.33783    
   485.623      11.0998      2.30288    
   493.478      10.7910      2.26845    
   501.459      10.4372      2.23369    
   509.570      10.0234      2.19700    
   517.812      9.53189      2.16092    
   526.187      8.93605      2.12543    
   534.698      8.19279      2.09052    
   543.346      7.22049      2.05073    
   552.134      5.84898      2.00951    
   561.065      3.63220      1.96911    
   570.139     -1.71588      1.92952    
   574.000     -19.0823      1.91311    
   574.200     -19.0554      16.9731    
   579.361     0.236457      16.6980    
   588.732      5.44090      16.2158    
   598.254      8.01928      15.7475    
   607.930      9.72452      15.2927    
   617.763      10.9633      14.8511    
   627.755      11.8856      14.4222    
   637.908      12.5022      14.0840    
   648.226      13.0405      13.8947    
   658.711      13.5209      13.7079    
   669.365      13.8513      13.6002    
   680.191      14.2408      13.6681    
   691.193      14.6876      13.7363    
   702.372      15.1652      13.8049    
   713.733      15.6739      13.8739    
   725.277      16.2705      13.9432    
   737.008      16.9638      13.8818    
   748.928      17.5409      13.6463    
   761.042      18.0269      13.4147    
   773.351      18.4647      13.1871    
   785.859      18.8693      12.9633    
   798.570      19.2504      12.7434    
   811.486      19.6154      12.5271    
   824.611      19.9809      12.3146    
   837.949      20.3728      12.0750    
   851.502      20.7046      11.7601    
   865.274      20.9807      11.4535    
   879.269      21.2197      11.1548    
   893.491      21.4210      10.8640    
   907.943      21.5985      10.6084    
   922.628      21.7721      10.3697    
   937.551      21.9447      10.1364    
   952.715      22.1159      9.90832    
   968.124      22.2784      9.66533    
   983.783      22.4209      9.42121    
   999.695      22.5383      9.18323    
   1015.86      22.6403      8.96464    
   1032.29      22.7442      8.76097    
   1048.99      22.8470      8.55910    
   1065.96      22.9426      8.35889    
   1083.20      23.0314      8.16331    
   1100.72      23.1142      7.97230    
   1118.52      23.1916      7.78577    
   1136.61      23.2639      7.60367    
   1155.00      23.3314      7.42578    
   1173.68      23.3946      7.25203    
   1192.66      23.4538      7.08232    
   1211.95      23.5092      6.91659    
   1231.55      23.5617      6.75476    
   1251.47      23.6115      6.59544    
   1271.72      23.6583      6.43840    
   1292.29      23.7003      6.28328    
   1313.19      23.7383      6.13203    
   1334.43      23.7731      5.98442    
   1356.01      23.8049      5.84031    
   1377.94      23.8341      5.69960    
   1400.23      23.8609      5.56231    
   1422.88      23.8859      5.42842    
   1445.89      23.9094      5.29766    
   1469.28      23.9323      5.16918    
   1493.04      23.9549      5.04252    
   1517.19      23.9742      4.91365    
   1541.73      23.9892      4.78734    
   1566.67      24.0007      4.66424    
   1592.01      24.0097      4.54428    
   1617.76      24.0164      4.42741    
   1643.92      24.0213      4.31358    
   1670.51      24.0246      4.20273    
   1697.53      24.0266      4.09471    
   1724.99      24.0284      3.98944    
   1752.89      24.0289      3.88464    
   1781.24      24.0271      3.78189    
   1810.05      24.0233      3.68136    
   1839.32      24.0177      3.58346    
   1869.07      24.0108      3.48813    
   1899.30      24.0025      3.39529    
   1930.02      23.9931      3.30503    
   1961.24      23.9828      3.21715    
   1992.96      23.9712      3.13149    
   2025.20      23.9602      3.04953    
   2057.95      23.9489      2.96747    
   2091.24      23.9360      2.88736    
   2125.06      23.9221      2.80927    
   2159.43      23.9075      2.73328    
   2194.36      23.8922      2.65900    
   2229.85      23.8761      2.58670    
   2265.92      23.8594      2.51626    
   2302.57      23.8422      2.44764    
   2339.81      23.8244      2.38074    
   2377.66      23.8061      2.31562    
   2416.11      23.7873      2.25217    
   2455.19      23.7680      2.19040    
   2494.90      23.7484      2.13022    
   2535.26      23.7283      2.07164    
   2576.26      23.7078      2.01462    
   2617.93      23.6870      1.95910    
   2660.27      23.6658      1.90508    
   2703.30      23.6443      1.85248    
   2747.03      23.6225      1.80129    
   2791.46      23.6003      1.75148    
   2836.61      23.5779      1.70302    
   2882.49      23.5551      1.65585    
   2929.11      23.5321      1.60998    
   2976.48      23.5087      1.56538    
   3024.63      23.4851      1.52199    
   3073.55      23.4612      1.47977    
   3123.26      23.4370      1.43872    
   3173.78      23.4125      1.39879    
   3225.11      23.3876      1.35997    
   3277.27      23.3625      1.32222    
   3330.28      23.3369      1.28553    
   3384.15      23.3110      1.24984    
   3438.88      23.2848      1.21514    
   3494.50      23.2580      1.18141    
   3551.02      23.2309      1.14865    
   3608.46      23.2032      1.11679    
   3666.82      23.1750      1.08584    
   3726.13      23.1462      1.05572    
   3786.40      23.1168      1.02652    
   3847.64      23.0868     0.998083    
   3909.87      23.0559     0.970477    
   3973.11      23.0242     0.943626    
   4037.38      22.9916     0.917573    
   4102.68      22.9579     0.892240    
   4169.03      22.9230     0.867643    
   4236.46      22.8869     0.843758    
   4304.98      22.8493     0.820552    
   4374.62      22.8101     0.797991    
   4445.37      22.7690     0.776062    
   4517.27      22.7258     0.754774    
   4590.33      22.6802     0.734148    
   4664.58      22.6318     0.714069    
   4740.03      22.5801     0.694568    
   4816.69      22.5247     0.675635    
   4894.60      22.4649     0.657233    
   4973.77      22.3997     0.639384    
   5054.21      22.3282     0.622042    
   5135.96      22.2489     0.605222    
   5219.03      22.1598     0.588872    
   5303.44      22.0584     0.573005    
   5389.22      21.9407     0.557598    
   5476.39      21.8010     0.542637    
   5564.97      21.6299     0.528113    
   5654.98      21.4109     0.514006    
   5746.44      21.1106     0.500319    
   5839.39      20.6438     0.487031    
   5933.83      19.6430     0.474127    
   5989.10      12.9181     0.466827    
   5989.30      12.9188      3.84485    
   6029.81      19.4157      3.80769    
   6127.33      20.8006      3.72069    
   6226.44      21.4313      3.63494    
   6327.15      21.8497      3.55039    
   6429.48      22.1641      3.46704    
   6533.48      22.4157      3.38494    
   6639.15      22.6249      3.30411    
   6746.54      22.8033      3.22458    
   6855.65      22.9580      3.14646    
   6966.54      23.0941      3.06960    
   7079.22      23.2149      2.99403    
   7193.72      23.3229      2.91988    
   7310.07      23.4201      2.84713    
   7428.31      23.5080      2.77573    
   7548.45      23.5878      2.70561    
   7670.54      23.6604      2.63695    
   7794.61      23.7267      2.56957    
   7920.68      23.7872      2.50359    
   8048.79      23.8426      2.43897    
   8178.98      23.8935      2.37572    
   8311.26      23.9401      2.31377    
   8445.69      23.9829      2.25320    
   8582.29      24.0222      2.19383    
   8721.11      24.0582      2.13579    
   8862.16      24.0913      2.07909    
   9005.50      24.1217      2.02361    
   9151.16      24.1495      1.96941    
   9299.17      24.1750      1.91639    
   9449.58      24.1982      1.86463    
   9602.42      24.2194      1.81416    
   9757.73      24.2388      1.76483    
   9915.55      24.2564      1.71658    
   10075.9      24.2724      1.66954    
   10238.9      24.2868      1.62365    
   10404.5      24.2999      1.57886    
   10572.8      24.3116      1.53517    
   10743.8      24.3220      1.49256    
   10917.6      24.3313      1.45100    
   11094.2      24.3396      1.41047    
   11273.6      24.3468      1.37097    
   11455.9      24.3530      1.33246    
   11641.2      24.3584      1.29493    
   11829.5      24.3630      1.25835    
   12020.8      24.3668      1.22272    
   12215.3      24.3698      1.18800    
   12412.8      24.3722      1.15419    
   12613.6      24.3740      1.12126    
   12817.6      24.3751      1.08919    
   13025.0      24.3758      1.05796    
   13235.6      24.3759      1.02756    
   13449.7      24.3755     0.997965    
   13667.2      24.3748     0.969160    
   13888.3      24.3735     0.941126    
   14112.9      24.3720     0.913845    
   14341.2      24.3700     0.887300    
   14573.1      24.3678     0.861474    
   14808.9      24.3652     0.836350    
   15048.4      24.3623     0.811911    
   15291.8      24.3592     0.788142    
   15539.1      24.3559     0.765025    
   15790.4      24.3523     0.742545    
   16045.8      24.3486     0.720686    
   16305.4      24.3446     0.699433    
   16569.1      24.3405     0.678772    
   16837.1      24.3363     0.658686    
   17109.4      24.3319     0.639163    
   17386.1      24.3274     0.620187    
   17667.4      24.3228     0.601744    
   17953.1      24.3180     0.583822    
   18243.5      24.3132     0.566407    
   18538.6      24.3084     0.549485    
   18838.4      24.3034     0.533044    
   19143.1      24.2984     0.517072    
   19452.7      24.2934     0.501556    
   19767.4      24.2883     0.486483    
   20087.1      24.2832     0.471843    
   20412.0      24.2780     0.457624    
   20742.1      24.2729     0.443815    
   21077.6      24.2677     0.430403    
   21418.5      24.2626     0.417381    
   21765.0      24.2574     0.404735    
   22117.0      24.2522     0.392457    
   22474.7      24.2471     0.380537    
   22838.2      24.2419     0.368964    
   23207.6      24.2368     0.357729    
   23583.0      24.2318     0.346822    
   23964.4      24.2267     0.336236    
   24352.0      24.2217     0.325960    
   24745.9      24.2167     0.315987    
   25146.2      24.2117     0.306308    
   25552.9      24.2068     0.296914    
   25966.2      24.2020     0.287798    
   26386.1      24.1971     0.278952    
   26812.9      24.1924     0.270369    
   27246.6      24.1876     0.262040    
   27687.3      24.1830     0.253960    
   28135.1      24.1784     0.246119    
   28590.2      24.1738     0.238513    
   29052.6      24.1694     0.231135    
   29522.5      24.1656     0.223976    
   30000.0      24.1584     0.217033    
