 f , Z= 9, (Energy (eV),f1,f2)
   10.0000     -9999.00     0.516473E-01
   10.1617     -9999.00     0.564796E-01
   10.3261     -9999.00     0.617639E-01
   10.4931     -9999.00     0.675427E-01
   10.6628     -9999.00     0.738623E-01
   10.8353     -9999.00     0.807729E-01
   11.0106     -9999.00     0.883303E-01
   11.1886     -9999.00     0.965947E-01
   11.3696     -9999.00     0.108313    
   11.5535     -9999.00     0.124621    
   11.7404     -9999.00     0.147675    
   11.9303     -9999.00     0.182934    
   12.1232     -9999.00     0.286819    
   12.3193     -9999.00     0.427324    
   12.5186     -9999.00     0.526258    
   12.7210     -9999.00     0.597229    
   12.9268     -9999.00     0.676277    
   13.1359     -9999.00     0.758009    
   13.3483     -9999.00     0.849618    
   13.5642     -9999.00     0.921830    
   13.7836     -9999.00     0.987157    
   14.0066     -9999.00      1.05711    
   14.2331     -9999.00      1.13203    
   14.4633     -9999.00      1.21042    
   14.6973     -9999.00      1.29408    
   14.9350     -9999.00      1.38352    
   15.1765     -9999.00      1.47159    
   15.4220     -9999.00      1.55088    
   15.6714     -9999.00      1.63444    
   15.9249     -9999.00      1.72250    
   16.1825     -9999.00      1.80568    
   16.4442     -9999.00      1.89012    
   16.7102     -9999.00      1.97852    
   16.9805     -9999.00      2.07103    
   17.2551     -9999.00      2.15963    
   17.5342     -9999.00      2.25202    
   17.8178     -9999.00      2.34836    
   18.1060     -9999.00      2.44883    
   18.3989     -9999.00      2.54900    
   18.6964     -9999.00      2.64222    
   18.9988     -9999.00      2.73886    
   19.3061     -9999.00      2.83903    
   19.6184     -9999.00      2.94287    
   19.9357     -9999.00      3.00878    
   20.2582     -9999.00      3.07304    
   20.5858     -9999.00      3.13868    
   20.9188     -9999.00      3.20572    
   21.2571     -9999.00      3.27419    
   21.6009     -9999.00      3.34589    
   21.9503     -9999.00      3.42018    
   22.3053     -9999.00      3.49611    
   22.6661     -9999.00      3.57373    
   23.0327     -9999.00      3.65342    
   23.4053     -9999.00      3.73752    
   23.7838     -9999.00      3.82355    
   24.1685     -9999.00      3.91157    
   24.5594     -9999.00      4.00163    
   24.9566     -9999.00      4.09386    
   25.3603     -9999.00      4.18821    
   25.7705     -9999.00      4.28474    
   26.1873     -9999.00      4.37975    
   26.6109     -9999.00      4.45994    
   27.0413     -9999.00      4.54160    
   27.4786     -9999.00      4.62477    
   27.9231     -9999.00      4.70945    
   28.3747     -9999.00      4.78193    
   28.8337     -9999.00      4.84730    
   29.3000     0.226996      4.91356    
   29.7739     0.384977      4.95547    
   30.2555     0.517012      4.96088    
   30.7449     0.632930      4.96630    
   31.2421     0.741702      4.97169    
   31.7475     0.843041      4.96961    
   32.2609     0.935161      4.96752    
   32.7827      1.01869      4.96544    
   33.3130      1.09087      4.96877    
   33.8518      1.16564      4.98028    
   34.3993      1.24090      4.99181    
   34.9557      1.31432      5.00336    
   35.5211      1.38409      5.01495    
   36.0956      1.44517      5.03487    
   36.6794      1.51571      5.06402    
   37.2727      1.59158      5.09333    
   37.8755      1.67171      5.12282    
   38.4882      1.75846      5.15247    
   39.1107      1.85565      5.17148    
   39.7432      1.94343      5.18208    
   40.3861      2.02685      5.19270    
   41.0393      2.10858      5.20335    
   41.7031      2.18907      5.21402    
   42.3776      2.26852      5.22471    
   43.0630      2.34674      5.23542    
   43.7595      2.42403      5.24813    
   44.4673      2.50254      5.26164    
   45.1865      2.58173      5.27519    
   45.9174      2.66148      5.28879    
   46.6600      2.74181      5.30241    
   47.4147      2.82280      5.31607    
   48.1816      2.90450      5.32976    
   48.9609      2.98703      5.34349    
   49.7528      3.07048      5.35725    
   50.5576      3.15497      5.37106    
   51.3753      3.24062      5.38489    
   52.2062      3.32756      5.39876    
   53.0506      3.41588      5.41267    
   53.9087      3.50572      5.42661    
   54.7806      3.59394      5.44059    
   55.6667      3.66975      5.47877    
   56.5670      3.80894      5.50844    
   57.4820      3.93129      5.50408    
   58.4117      4.04771      5.49978    
   59.3564      4.16932      5.49039    
   60.3165      4.28507      5.47242    
   61.2921      4.40251      5.45038    
   62.2834      4.51175      5.41870    
   63.2908      4.61445      5.38722    
   64.3145      4.71396      5.35596    
   65.3547      4.81148      5.32485    
   66.4118      4.90780      5.29387    
   67.4859      5.00390      5.26314    
   68.5775      5.10210      5.23266    
   69.6867      5.20433      5.19583    
   70.8138      5.30366      5.15523    
   71.9591      5.40026      5.10646    
   73.1230      5.49039      5.05650    
   74.3057      5.57643      5.00700    
   75.5076      5.66011      4.95790    
   76.7289      5.74238      4.90928    
   77.9699      5.82490      4.86112    
   79.2310      5.90640      4.80893    
   80.5125      5.98696      4.75718    
   81.8147      6.06832      4.70000    
   83.1380      6.14317      4.63995    
   84.4827      6.21375      4.58088    
   85.8491      6.28211      4.52256    
   87.2377      6.34916      4.46501    
   88.6487      6.41631      4.40662    
   90.0825      6.48102      4.34714    
   91.5395      6.54638      4.28615    
   93.0201      6.60671      4.22208    
   94.5246      6.66374      4.15894    
   96.0535      6.71854      4.09670    
   97.6071      6.77197      4.03538    
   99.1858      6.82552      3.97497    
   100.790      6.88114      3.91047    
   102.420      6.92943      3.84210    
   104.077      6.97366      3.77553    
   105.760      7.01511      3.71011    
   107.471      7.05418      3.64583    
   109.209      7.09118      3.58268    
   110.975      7.12636      3.52060    
   112.770      7.15983      3.45959    
   114.594      7.19182      3.39966    
   116.448      7.22246      3.34076    
   118.331      7.25186      3.28287    
   120.245      7.28017      3.22601    
   122.190      7.30755      3.17011    
   124.166      7.33412      3.11517    
   126.175      7.36015      3.06119    
   128.215      7.38610      3.00816    
   130.289      7.41380      2.95521    
   132.397      7.43894      2.89798    
   134.538      7.46113      2.84188    
   136.714      7.48123      2.78686    
   138.925      7.49981      2.73290    
   141.172      7.51710      2.67999    
   143.456      7.53325      2.62810    
   145.776      7.54838      2.57722    
   148.134      7.56260      2.52734    
   150.530      7.57606      2.47844    
   152.964      7.58883      2.43047    
   155.439      7.60109      2.38340    
   157.953      7.61317      2.33722    
   160.507      7.62467      2.29077    
   163.103      7.63562      2.24467    
   165.742      7.64500      2.19877    
   168.422      7.65329      2.15387    
   171.146      7.66076      2.10987    
   173.915      7.66750      2.06676    
   176.727      7.67358      2.02450    
   179.586      7.67908      1.98311    
   182.491      7.68406      1.94258    
   185.442      7.68870      1.90291    
   188.442      7.69322      1.86384    
   191.489      7.69756      1.82515    
   194.587      7.70097      1.78639    
   197.734      7.70356      1.74843    
   200.932      7.70552      1.71126    
   204.182      7.70701      1.67487    
   207.485      7.70817      1.63917    
   210.840      7.70909      1.60412    
   214.251      7.70941      1.56903    
   217.716      7.70899      1.53468    
   221.237      7.70797      1.50109    
   224.816      7.70649      1.46825    
   228.452      7.70463      1.43613    
   232.147      7.70242      1.40471    
   235.902      7.70000      1.37397    
   239.717      7.69747      1.34363    
   243.595      7.69442      1.31361    
   247.535      7.69085      1.28406    
   251.538      7.68679      1.25513    
   255.607      7.68229      1.22683    
   259.741      7.67744      1.19923    
   263.942      7.67232      1.17223    
   268.211      7.66701      1.14583    
   272.549      7.66142      1.11977    
   276.957      7.65544      1.09423    
   281.437      7.64914      1.06924    
   285.989      7.64258      1.04483    
   290.615      7.63584      1.02097    
   295.315      7.62913     0.997652    
   300.092      7.62289     0.974426    
   304.945      7.61565     0.950230    
   309.878      7.60745     0.926635    
   314.890      7.59852     0.903624    
   319.983      7.58904     0.881185    
   325.158      7.57904     0.859304    
   330.418      7.56858     0.837966    
   335.762      7.55766     0.817158    
   341.192      7.54631     0.796866    
   346.711      7.53454     0.777080    
   352.319      7.52236     0.757783    
   358.017      7.50977     0.738966    
   363.808      7.49680     0.720616    
   369.692      7.48346     0.702721    
   375.672      7.46981     0.685272    
   381.748      7.45597     0.668255    
   387.922      7.44250     0.651661    
   394.197      7.42885     0.633203    
   400.573      7.41329     0.614319    
   407.052      7.39596     0.595997    
   413.635      7.37744     0.578222    
   420.326      7.35778     0.560977    
   427.124      7.33701     0.544246    
   434.032      7.31510     0.528014    
   441.052      7.29202     0.512267    
   448.186      7.26769     0.496989    
   455.435      7.24189     0.482202    
   462.802      7.21490     0.468296    
   470.287      7.18665     0.454791    
   477.894      7.15697     0.441676    
   485.623      7.12566     0.428938    
   493.478      7.09257     0.416567    
   501.459      7.05748     0.404554    
   509.570      7.02018     0.392888    
   517.812      6.98039     0.381557    
   526.187      6.93783     0.370553    
   534.698      6.89211     0.359867    
   543.346      6.84283     0.349489    
   552.134      6.78953     0.339410    
   561.065      6.73141     0.329269    
   570.139      6.66747     0.319340    
   579.361      6.59672     0.309710    
   588.732      6.51789     0.300371    
   598.254      6.42927     0.291313    
   607.930      6.32851     0.282529    
   617.763      6.21291     0.274009    
   627.755      6.07690     0.264419    
   637.908      5.91248     0.254836    
   648.226      5.70824     0.245599    
   658.711      5.44338     0.236698    
   669.365      5.07493     0.228119    
   680.191      4.49043     0.219851    
   691.193      3.15666     0.211882    
   696.600     -1.94772     0.208117    
   696.800     -1.94318      4.25895    
   702.372      3.32349      4.21271    
   713.733      4.82037      4.12109    
   725.277      5.54534      4.03145    
   737.008      6.03412      3.94377    
   748.928      6.40462      3.85800    
   761.042      6.70309      3.77409    
   773.351      6.95272      3.69201    
   785.859      7.16683      3.61170    
   798.570      7.35385      3.53315    
   811.486      7.51947      3.45631    
   824.611      7.66774      3.38114    
   837.949      7.80166      3.30760    
   851.502      7.92355      3.23567    
   865.274      8.03528      3.16529    
   879.269      8.13844      3.09645    
   893.491      8.23477      3.02910    
   907.943      8.32638      2.96067    
   922.628      8.40972      2.89030    
   937.551      8.48485      2.82159    
   952.715      8.55409      2.75453    
   968.124      8.61813      2.68905    
   983.783      8.67783      2.62525    
   999.695      8.73399      2.56216    
   1015.86      8.78586      2.49961    
   1032.29      8.83342      2.43829    
   1048.99      8.87741      2.37845    
   1065.96      8.91817      2.32006    
   1083.20      8.95607      2.26315    
   1100.72      8.99143      2.20754    
   1118.52      9.02433      2.15315    
   1136.61      9.05493      2.10007    
   1155.00      9.08348      2.04828    
   1173.68      9.11025      1.99776    
   1192.66      9.13541      1.94833    
   1211.95      9.15924      1.89964    
   1231.55      9.18115      1.85150    
   1251.47      9.20115      1.80462    
   1271.72      9.21971      1.75892    
   1292.29      9.23745      1.71436    
   1313.19      9.25383      1.66995    
   1334.43      9.26857      1.62652    
   1356.01      9.28196      1.58407    
   1377.94      9.29416      1.54272    
   1400.23      9.30537      1.50232    
   1422.88      9.31553      1.46279    
   1445.89      9.32471      1.42423    
   1469.28      9.33307      1.38668    
   1493.04      9.34101      1.35014    
   1517.19      9.34812      1.31361    
   1541.73      9.35415      1.27789    
   1566.67      9.35919      1.24306    
   1592.01      9.36343      1.20914    
   1617.76      9.36691      1.17615    
   1643.92      9.36981      1.14412    
   1670.51      9.37220      1.11293    
   1697.53      9.37408      1.08257    
   1724.99      9.37567      1.05302    
   1752.89      9.37681      1.02396    
   1781.24      9.37738     0.995586    
   1810.05      9.37745     0.967927    
   1839.32      9.37707     0.941048    
   1869.07      9.37632     0.914906    
   1899.30      9.37523     0.889466    
   1930.02      9.37382     0.864740    
   1961.24      9.37213     0.840703    
   1992.96      9.37009     0.817335    
   2025.20      9.36817     0.794916    
   2057.95      9.36612     0.772632    
   2091.24      9.36371     0.750928    
   2125.06      9.36107     0.729789    
   2159.43      9.35823     0.709212    
   2194.36      9.35523     0.689181    
   2229.85      9.35205     0.669677    
   2265.92      9.34874     0.650699    
   2302.57      9.34530     0.632218    
   2339.81      9.34174     0.614237    
   2377.66      9.33807     0.596729    
   2416.11      9.33430     0.579696    
   2455.19      9.33045     0.563120    
   2494.90      9.32652     0.546979    
   2535.26      9.32252     0.531280    
   2576.26      9.31846     0.516004    
   2617.93      9.31435     0.501142    
   2660.27      9.31019     0.486672    
   2703.30      9.30599     0.472600    
   2747.03      9.30177     0.458907    
   2791.46      9.29751     0.445585    
   2836.61      9.29324     0.432617    
   2882.49      9.28894     0.420009    
   2929.11      9.28464     0.407744    
   2976.48      9.28033     0.395808    
   3024.63      9.27602     0.384190    
   3073.55      9.27171     0.372905    
   3123.26      9.26741     0.361916    
   3173.78      9.26311     0.351220    
   3225.11      9.25882     0.340826    
   3277.27      9.25455     0.330716    
   3330.28      9.25030     0.320869    
   3384.15      9.24606     0.311308    
   3438.88      9.24185     0.302003    
   3494.50      9.23767     0.292948    
   3551.02      9.23351     0.284136    
   3608.46      9.22937     0.275569    
   3666.82      9.22526     0.267242    
   3726.13      9.22119     0.259143    
   3786.40      9.21715     0.251250    
   3847.64      9.21313     0.243587    
   3909.87      9.20915     0.236125    
   3973.11      9.20519     0.228872    
   4037.38      9.20127     0.221828    
   4102.68      9.19738     0.214980    
   4169.03      9.19352     0.208329    
   4236.46      9.18969     0.201871    
   4304.98      9.18590     0.195620    
   4374.62      9.18217     0.189531    
   4445.37      9.17846     0.183630    
   4517.27      9.17481     0.177901    
   4590.33      9.17120     0.172344    
   4664.58      9.16764     0.166950    
   4740.03      9.16412     0.161717    
   4816.69      9.16065     0.156639    
   4894.60      9.15723     0.151715    
   4973.77      9.15386     0.146934    
   5054.21      9.15054     0.142300    
   5135.96      9.14726     0.137803    
   5219.03      9.14404     0.133443    
   5303.44      9.14087     0.129212    
   5389.22      9.13774     0.125110    
   5476.39      9.13467     0.121133    
   5564.97      9.13165     0.117276    
   5654.98      9.12867     0.113536    
   5746.44      9.12575     0.109908    
   5839.39      9.12287     0.106394    
   5933.83      9.12005     0.102985    
   6029.81      9.11727     0.996809E-01
   6127.33      9.11454     0.964772E-01
   6226.44      9.11187     0.933711E-01
   6327.15      9.10923     0.903615E-01
   6429.48      9.10665     0.874446E-01
   6533.48      9.10411     0.846192E-01
   6639.15      9.10162     0.818799E-01
   6746.54      9.09918     0.792250E-01
   6855.65      9.09679     0.766529E-01
   6966.54      9.09444     0.741586E-01
   7079.22      9.09213     0.717451E-01
   7193.72      9.08987     0.694045E-01
   7310.07      9.08765     0.671388E-01
   7428.31      9.08548     0.649421E-01
   7548.45      9.08335     0.628154E-01
   7670.54      9.08126     0.607550E-01
   7794.61      9.07922     0.587594E-01
   7920.68      9.07722     0.568259E-01
   8048.79      9.07525     0.549528E-01
   8178.98      9.07333     0.531394E-01
   8311.26      9.07145     0.513851E-01
   8445.69      9.06961     0.496838E-01
   8582.29      9.06780     0.480370E-01
   8721.11      9.06603     0.464430E-01
   8862.16      9.06430     0.448991E-01
   9005.50      9.06261     0.434069E-01
   9151.16      9.06096     0.419581E-01
   9299.17      9.05933     0.405582E-01
   9449.58      9.05775     0.392026E-01
   9602.42      9.05620     0.378903E-01
   9757.73      9.05468     0.366203E-01
   9915.55      9.05319     0.353915E-01
   10075.9      9.05174     0.342018E-01
   10238.9      9.05032     0.330505E-01
   10404.5      9.04894     0.319365E-01
   10572.8      9.04758     0.308584E-01
   10743.8      9.04625     0.298153E-01
   10917.6      9.04496     0.288060E-01
   11094.2      9.04369     0.278296E-01
   11273.6      9.04245     0.268849E-01
   11455.9      9.04124     0.259711E-01
   11641.2      9.04006     0.250872E-01
   11829.5      9.03890     0.242321E-01
   12020.8      9.03777     0.234051E-01
   12215.3      9.03667     0.226052E-01
   12412.8      9.03560     0.218317E-01
   12613.6      9.03454     0.210836E-01
   12817.6      9.03352     0.203602E-01
   13025.0      9.03251     0.196608E-01
   13235.6      9.03153     0.189845E-01
   13449.7      9.03058     0.183307E-01
   13667.2      9.02965     0.176985E-01
   13888.3      9.02873     0.170875E-01
   14112.9      9.02785     0.164968E-01
   14341.2      9.02698     0.159259E-01
   14573.1      9.02613     0.153741E-01
   14808.9      9.02530     0.148408E-01
   15048.4      9.02450     0.143254E-01
   15291.8      9.02371     0.138274E-01
   15539.1      9.02294     0.133462E-01
   15790.4      9.02219     0.128813E-01
   16045.8      9.02146     0.124321E-01
   16305.4      9.02075     0.119982E-01
   16569.1      9.02005     0.115791E-01
   16837.1      9.01937     0.111742E-01
   17109.4      9.01871     0.107832E-01
   17386.1      9.01807     0.104056E-01
   17667.4      9.01744     0.100409E-01
   17953.1      9.01683     0.968875E-02
   18243.5      9.01623     0.934876E-02
   18538.6      9.01565     0.902052E-02
   18838.4      9.01508     0.870365E-02
   19143.1      9.01453     0.839779E-02
   19452.7      9.01399     0.810257E-02
   19767.4      9.01346     0.781765E-02
   20087.1      9.01295     0.754257E-02
   20412.0      9.01245     0.727735E-02
   20742.1      9.01196     0.702156E-02
   21077.6      9.01149     0.677484E-02
   21418.5      9.01103     0.653687E-02
   21765.0      9.01058     0.630733E-02
   22117.0      9.01014     0.608592E-02
   22474.7      9.00972     0.587235E-02
   22838.2      9.00930     0.566631E-02
   23207.6      9.00890     0.546756E-02
   23583.0      9.00851     0.527582E-02
   23964.4      9.00812     0.509084E-02
   24352.0      9.00775     0.491238E-02
   24745.9      9.00739     0.474021E-02
   25146.2      9.00704     0.457410E-02
   25552.9      9.00669     0.441383E-02
   25966.2      9.00636     0.425919E-02
   26386.1      9.00604     0.410999E-02
   26812.9      9.00572     0.396602E-02
   27246.6      9.00541     0.382710E-02
   27687.3      9.00511     0.369306E-02
   28135.1      9.00482     0.356371E-02
   28590.2      9.00454     0.343889E-02
   29052.6      9.00427     0.331845E-02
   29522.5      9.00401     0.320221E-02
   30000.0      9.00371     0.309004E-02
