 p , Z=15, (Energy (eV),f1,f2)
   10.0000     -9999.00      8.47738    
   10.1617     -9999.00      8.27092    
   10.3261     -9999.00      8.06949    
   10.4931     -9999.00      7.87297    
   10.6628     -9999.00      7.68123    
   10.8353     -9999.00      7.49416    
   11.0106     -9999.00      7.31165    
   11.1886     -9999.00      7.13359    
   11.3696     -9999.00      6.95985    
   11.5535     -9999.00      6.79035    
   11.7404     -9999.00      6.62498    
   11.9303     -9999.00      6.46364    
   12.1232     -9999.00      6.30623    
   12.3193     -9999.00      6.14279    
   12.5186     -9999.00      5.96938    
   12.7210     -9999.00      5.80087    
   12.9268     -9999.00      5.63711    
   13.1359     -9999.00      5.47797    
   13.3483     -9999.00      5.32059    
   13.5642     -9999.00      5.10232    
   13.7836     -9999.00      4.89300    
   14.0066     -9999.00      4.69227    
   14.2331     -9999.00      4.49977    
   14.4633     -9999.00      4.31517    
   14.6973     -9999.00      4.13815    
   14.9350     -9999.00      3.96838    
   15.1765     -9999.00      3.80558    
   15.4220     -9999.00      3.64946    
   15.6714     -9999.00      3.49498    
   15.9249     -9999.00      3.33559    
   16.1825     -9999.00      3.18347    
   16.4442     -9999.00      3.03828    
   16.7102     -9999.00      2.89419    
   16.9805     -9999.00      2.69318    
   17.2551     -9999.00      2.50614    
   17.5342     -9999.00      2.31986    
   17.8178     -9999.00      2.10076    
   18.1060     -9999.00      1.90237    
   18.3989     -9999.00      1.70008    
   18.6964     -9999.00      1.51572    
   18.9988     -9999.00      1.37184    
   19.3061     -9999.00      1.24320    
   19.6184     -9999.00      1.12494    
   19.9357     -9999.00      1.01574    
   20.2582     -9999.00     0.914288    
   20.5858     -9999.00     0.816119    
   20.9188     -9999.00     0.731590    
   21.2571     -9999.00     0.661629    
   21.6009     -9999.00     0.597179    
   21.9503     -9999.00     0.537266    
   22.3053     -9999.00     0.483365    
   22.6661     -9999.00     0.438116    
   23.0327     -9999.00     0.397524    
   23.4053     -9999.00     0.362656    
   23.7838     -9999.00     0.334441    
   24.1685     -9999.00     0.308421    
   24.5594     -9999.00     0.282182    
   24.9566     -9999.00     0.257009    
   25.3603     -9999.00     0.236594    
   25.7705     -9999.00     0.222772    
   26.1873     -9999.00     0.209917    
   26.6109     -9999.00     0.206460    
   27.0413     -9999.00     0.203059    
   27.4786     -9999.00     0.204255    
   27.9231     -9999.00     0.209753    
   28.3747     -9999.00     0.215399    
   28.8337     -9999.00     0.221196    
   29.3000      4.97805     0.229708    
   29.7739      4.94245     0.238708    
   30.2555      4.90915     0.248061    
   30.7449      4.87753     0.258073    
   31.2421      4.84809     0.268995    
   31.7475      4.82071     0.280380    
   32.2609      4.79531     0.292247    
   32.7827      4.77233     0.304615    
   33.3130      4.75285     0.316307    
   33.8518      4.73345     0.325368    
   34.3993      4.71416     0.334688    
   34.9557      4.69575     0.343738    
   35.5211      4.67746     0.352639    
   36.0956      4.65958     0.361769    
   36.6794      4.64218     0.371136    
   37.2727      4.62528     0.380746    
   37.8755      4.60889     0.390605    
   38.4882      4.59301     0.400718    
   39.1107      4.57763     0.411094    
   39.7432      4.56276     0.421739    
   40.3861      4.54841     0.432658    
   41.0393      4.53459     0.443861    
   41.7031      4.52133     0.455354    
   42.3776      4.50872     0.467145    
   43.0630      4.49696     0.479240    
   43.7595      4.48618     0.490690    
   44.4673      4.47517     0.501872    
   45.1865      4.46431     0.513308    
   45.9174      4.45372     0.525005    
   46.6600      4.44348     0.536968    
   47.4147      4.43366     0.549204    
   48.1816      4.42433     0.561719    
   48.9609      4.41557     0.574519    
   49.7528      4.40751     0.587610    
   50.5576      4.40035     0.601000    
   51.3753      4.39447     0.614695    
   52.2062      4.39076     0.628703    
   53.0506      4.39223     0.639288    
   53.9087      4.38977     0.644138    
   54.7806      4.38494     0.649026    
   55.6667      4.37881     0.653950    
   56.5670      4.37180     0.658911    
   57.4820      4.36411     0.663911    
   58.4117      4.35588     0.668948    
   59.3564      4.34726     0.674023    
   60.3165      4.33842     0.679137    
   61.2921      4.32979     0.684290    
   62.2834      4.32275     0.688005    
   63.2908      4.31322     0.688515    
   64.3145      4.30156     0.689024    
   65.3547      4.28832     0.689535    
   66.4118      4.27373     0.690045    
   67.4859      4.25786     0.690556    
   68.5775      4.24072     0.691067    
   69.6867      4.22231     0.691579    
   70.8138      4.20263     0.692091    
   71.9591      4.18164     0.692603    
   73.1230      4.15933     0.693116    
   74.3057      4.13568     0.693629    
   75.5076      4.11073     0.694143    
   76.7289      4.08472     0.694657    
   77.9699      4.05772     0.693818    
   79.2310      4.02776     0.692060    
   80.5125      3.99527     0.690306    
   81.8147      3.96034     0.688558    
   83.1380      3.92293     0.686813    
   84.4827      3.88292     0.685073    
   85.8491      3.84018     0.683337    
   87.2377      3.79457     0.681605    
   88.6487      3.74590     0.679879    
   90.0825      3.69399     0.678156    
   91.5395      3.63867     0.676438    
   93.0201      3.57976     0.674723    
   94.5246      3.51745     0.673014    
   96.0535      3.45338     0.669023    
   97.6071      3.38116     0.661918    
   99.1858      3.30117     0.654888    
   100.790      3.21387     0.647932    
   102.420      3.11870     0.641051    
   104.077      3.01492     0.634243    
   105.760      2.90159     0.627507    
   107.471      2.77760     0.620842    
   109.209      2.64162     0.614248    
   110.975      2.49249     0.607725    
   112.770      2.32708     0.598330    
   114.594      2.14049     0.588439    
   116.448      1.92932     0.578712    
   118.331      1.68884     0.569145    
   120.245      1.41189     0.559736    
   122.190      1.08814     0.550483    
   124.166     0.701791     0.541383    
   126.175     0.227104     0.532433    
   128.215    -0.382396     0.523631    
   130.289     -1.22512     0.514975    
   132.397     -2.58099     0.506462    
   134.538     -6.42991     0.498089    
   134.900     -9.75036     0.496701    
   135.100     -9.78040      7.24821    
   136.714     -3.80688      7.37624    
   138.925     -2.11871      7.55281    
   141.172     -1.19700      7.73360    
   143.456    -0.541382      7.91872    
   145.776    -0.141602E-01  8.10828    
   148.134     0.444985      8.30236    
   150.530     0.872470      8.50110    
   152.964      1.31326      8.70460    
   155.439      1.73013      8.80797    
   157.953      2.10106      8.91101    
   160.507      2.44414      9.01526    
   163.103      2.77746      9.12073    
   165.742      3.11313      9.22744    
   168.422      3.48135      9.33539    
   171.146      3.90962      9.32404    
   173.915      4.22455      9.22128    
   176.727      4.43798      9.11966    
   179.586      4.57084      9.01915    
   182.491      4.48835      8.91977    
   185.442      4.43827      9.23234    
   188.442      4.56813      9.57278    
   191.489      4.81079      9.92577    
   194.587      5.17514      10.2918    
   197.734      5.79093      10.6365    
   200.932      6.36132      10.5513    
   204.182      6.81058      10.4668    
   207.485      7.18838      10.3830    
   210.840      7.53860      10.2999    
   214.251      7.89918      10.2010    
   217.716      8.21430      10.0610    
   221.237      8.48864      9.92281    
   224.816      8.73923      9.78655    
   228.452      8.96913      9.65218    
   232.147      9.17702      9.51964    
   235.902      9.36814      9.40594    
   239.717      9.55750      9.30022    
   243.595      9.74455      9.19568    
   247.535      9.92636      9.09233    
   251.538      10.1032      8.99012    
   255.607      10.2756      8.88907    
   259.741      10.4440      8.78916    
   263.942      10.6092      8.69037    
   268.211      10.7723      8.59270    
   272.549      10.9346      8.49611    
   276.957      11.0992      8.40062    
   281.437      11.2799      8.29784    
   285.989      11.4420      8.16494    
   290.615      11.5876      8.03417    
   295.315      11.7225      7.90550    
   300.092      11.8494      7.77888    
   304.945      11.9696      7.65429    
   309.878      12.0840      7.53171    
   314.890      12.1932      7.41108    
   319.983      12.2978      7.29238    
   325.158      12.3980      7.17559    
   330.418      12.4944      7.06067    
   335.762      12.5873      6.94758    
   341.192      12.6769      6.83631    
   346.711      12.7636      6.72682    
   352.319      12.8477      6.61909    
   358.017      12.9295      6.51308    
   363.808      13.0092      6.40876    
   369.692      13.0874      6.30612    
   375.672      13.1645      6.20512    
   381.748      13.2415      6.10575    
   387.922      13.3212      6.00635    
   394.197      13.4025      5.90391    
   400.573      13.4811      5.79178    
   407.052      13.5497      5.67735    
   413.635      13.6120      5.56536    
   420.326      13.6701      5.45550    
   427.124      13.7248      5.34777    
   434.032      13.7766      5.24210    
   441.052      13.8263      5.13855    
   448.186      13.8765      5.03630    
   455.435      13.9240      4.93239    
   462.802      13.9681      4.82790    
   470.287      14.0080      4.72416    
   477.894      14.0439      4.62251    
   485.623      14.0772      4.52320    
   493.478      14.1082      4.42610    
   501.459      14.1376      4.33116    
   509.570      14.1656      4.23809    
   517.812      14.1929      4.14664    
   526.187      14.2195      4.05603    
   534.698      14.2448      3.96511    
   543.346      14.2676      3.87511    
   552.134      14.2909      3.78720    
   561.065      14.3127      3.69300    
   570.139      14.3245      3.59832    
   579.361      14.3322      3.51289    
   588.732      14.3394      3.43156    
   598.254      14.3476      3.35339    
   607.930      14.3561      3.27701    
   617.763      14.3652      3.20235    
   627.755      14.3764      3.12899    
   637.908      14.3889      3.05264    
   648.226      14.3997      2.97138    
   658.711      14.4026      2.88794    
   669.365      14.3978      2.80681    
   680.191      14.3872      2.73538    
   691.193      14.3787      2.67141    
   702.372      14.3760      2.61054    
   713.733      14.3752      2.54730    
   725.277      14.3721      2.48306    
   737.008      14.3676      2.42045    
   748.928      14.3622      2.35942    
   761.042      14.3564      2.29987    
   773.351      14.3508      2.24135    
   785.859      14.3448      2.18267    
   798.570      14.3367      2.12420    
   811.486      14.3271      2.06731    
   824.611      14.3164      2.01193    
   837.949      14.3048      1.95803    
   851.502      14.2922      1.90579    
   865.274      14.2790      1.85517    
   879.269      14.2654      1.80610    
   893.491      14.2514      1.75835    
   907.943      14.2370      1.71185    
   922.628      14.2224      1.66658    
   937.551      14.2073      1.62225    
   952.715      14.1917      1.57906    
   968.124      14.1756      1.53698    
   983.783      14.1592      1.49604    
   999.695      14.1423      1.45621    
   1015.86      14.1251      1.41747    
   1032.29      14.1079      1.37983    
   1048.99      14.0905      1.34273    
   1065.96      14.0724      1.30615    
   1083.20      14.0535      1.27056    
   1100.72      14.0341      1.23596    
   1118.52      14.0142      1.20232    
   1136.61      13.9939      1.16956    
   1155.00      13.9730      1.13770    
   1173.68      13.9516      1.10673    
   1192.66      13.9297      1.07657    
   1211.95      13.9072      1.04723    
   1231.55      13.8841      1.01867    
   1251.47      13.8604     0.990996    
   1271.72      13.8360     0.964146    
   1292.29      13.8110     0.938107    
   1313.19      13.7854     0.912775    
   1334.43      13.7591     0.888128    
   1356.01      13.7319     0.864145    
   1377.94      13.7039     0.840814    
   1400.23      13.6748     0.818112    
   1422.88      13.6447     0.796024    
   1445.89      13.6134     0.774530    
   1469.28      13.5807     0.753673    
   1493.04      13.5465     0.733458    
   1517.19      13.5108     0.714144    
   1541.73      13.4736     0.695386    
   1566.67      13.4345     0.677114    
   1592.01      13.3933     0.659332    
   1617.76      13.3497     0.642015    
   1643.92      13.3032     0.625148    
   1670.51      13.2536     0.608723    
   1697.53      13.2004     0.592732    
   1724.99      13.1430     0.577164    
   1752.89      13.0806     0.561479    
   1781.24      13.0118     0.546048    
   1810.05      12.9355     0.530917    
   1839.32      12.8501     0.516200    
   1869.07      12.7535     0.501889    
   1899.30      12.6426     0.487977    
   1930.02      12.5132     0.474448    
   1961.24      12.3588     0.461296    
   1992.96      12.1687     0.448513    
   2025.20      11.9249     0.436361    
   2057.95      11.5895     0.423895    
   2091.24      11.0676     0.411665    
   2125.06      9.95415     0.399700    
   2145.40      3.54595     0.392762    
   2145.60      3.54765      4.22284    
   2159.43      9.60959      4.18509    
   2194.36      11.2187      4.09233    
   2229.85      11.9423      4.00067    
   2265.92      12.4219      3.91021    
   2302.57      12.7826      3.82100    
   2339.81      13.0719      3.73293    
   2377.66      13.3127      3.64605    
   2416.11      13.5186      3.56055    
   2455.19      13.6976      3.47630    
   2494.90      13.8553      3.39339    
   2535.26      13.9957      3.31185    
   2576.26      14.1216      3.23175    
   2617.93      14.2352      3.15296    
   2660.27      14.3383      3.07576    
   2703.30      14.4321      2.99968    
   2747.03      14.5177      2.92512    
   2791.46      14.5961      2.85195    
   2836.61      14.6679      2.78022    
   2882.49      14.7340      2.70992    
   2929.11      14.7947      2.64091    
   2976.48      14.8506      2.57341    
   3024.63      14.9020      2.50731    
   3073.55      14.9496      2.44270    
   3123.26      14.9935      2.37924    
   3173.78      15.0339      2.31715    
   3225.11      15.0710      2.25649    
   3277.27      15.1053      2.19715    
   3330.28      15.1369      2.13910    
   3384.15      15.1660      2.08237    
   3438.88      15.1927      2.02691    
   3494.50      15.2172      1.97273    
   3551.02      15.2397      1.91981    
   3608.46      15.2603      1.86811    
   3666.82      15.2791      1.81762    
   3726.13      15.2962      1.76833    
   3786.40      15.3118      1.72021    
   3847.64      15.3259      1.67325    
   3909.87      15.3387      1.62743    
   3973.11      15.3502      1.58274    
   4037.38      15.3605      1.53914    
   4102.68      15.3697      1.49661    
   4169.03      15.3778      1.45515    
   4236.46      15.3850      1.41472    
   4304.98      15.3912      1.37529    
   4374.62      15.3966      1.33687    
   4445.37      15.4011      1.29943    
   4517.27      15.4049      1.26295    
   4590.33      15.4080      1.22742    
   4664.58      15.4105      1.19278    
   4740.03      15.4123      1.15906    
   4816.69      15.4135      1.12621    
   4894.60      15.4142      1.09423    
   4973.77      15.4144      1.06306    
   5054.21      15.4141      1.03274    
   5135.96      15.4134      1.00323    
   5219.03      15.4123     0.974505    
   5303.44      15.4108     0.946528    
   5389.22      15.4090     0.919310    
   5476.39      15.4068     0.892828    
   5564.97      15.4043     0.867047    
   5654.98      15.4016     0.841986    
   5746.44      15.3985     0.817583    
   5839.39      15.3953     0.793881    
   5933.83      15.3918     0.770795    
   6029.81      15.3882     0.748323    
   6127.33      15.3843     0.726532    
   6226.44      15.3803     0.705292    
   6327.15      15.3761     0.684670    
   6429.48      15.3718     0.664605    
   6533.48      15.3674     0.645071    
   6639.15      15.3628     0.626122    
   6746.54      15.3582     0.607680    
   6855.65      15.3534     0.589768    
   6966.54      15.3486     0.572384    
   7079.22      15.3437     0.555427    
   7193.72      15.3388     0.539000    
   7310.07      15.3338     0.523022    
   7428.31      15.3288     0.507494    
   7548.45      15.3237     0.492406    
   7670.54      15.3186     0.477750    
   7794.61      15.3135     0.463515    
   7920.68      15.3084     0.449684    
   8048.79      15.3033     0.436244    
   8178.98      15.2981     0.423194    
   8311.26      15.2930     0.410515    
   8445.69      15.2879     0.398208    
   8582.29      15.2828     0.386248    
   8721.11      15.2777     0.374638    
   8862.16      15.2727     0.363359    
   9005.50      15.2676     0.352411    
   9151.16      15.2626     0.341780    
   9299.17      15.2577     0.331457    
   9449.58      15.2527     0.321431    
   9602.42      15.2478     0.311700    
   9757.73      15.2430     0.302254    
   9915.55      15.2382     0.293089    
   10075.9      15.2334     0.284185    
   10238.9      15.2287     0.275543    
   10404.5      15.2240     0.267153    
   10572.8      15.2194     0.259010    
   10743.8      15.2148     0.251106    
   10917.6      15.2103     0.243435    
   11094.2      15.2059     0.235989    
   11273.6      15.2015     0.228764    
   11455.9      15.1971     0.221751    
   11641.2      15.1928     0.214946    
   11829.5      15.1886     0.208342    
   12020.8      15.1844     0.201934    
   12215.3      15.1803     0.195715    
   12412.8      15.1763     0.189681    
   12613.6      15.1723     0.183827    
   12817.6      15.1684     0.178146    
   13025.0      15.1645     0.172634    
   13235.6      15.1607     0.167287    
   13449.7      15.1569     0.162099    
   13667.2      15.1532     0.157065    
   13888.3      15.1496     0.152182    
   14112.9      15.1460     0.147445    
   14341.2      15.1425     0.142849    
   14573.1      15.1391     0.138391    
   14808.9      15.1357     0.134067    
   15048.4      15.1324     0.129871    
   15291.8      15.1291     0.125802    
   15539.1      15.1259     0.121855    
   15790.4      15.1227     0.118027    
   16045.8      15.1196     0.114313    
   16305.4      15.1166     0.110711    
   16569.1      15.1136     0.107218    
   16837.1      15.1106     0.103829    
   17109.4      15.1078     0.100543    
   17386.1      15.1049     0.973559E-01
   17667.4      15.1022     0.942647E-01
   17953.1      15.0994     0.912668E-01
   18243.5      15.0968     0.883594E-01
   18538.6      15.0942     0.855399E-01
   18838.4      15.0916     0.828055E-01
   19143.1      15.0891     0.801538E-01
   19452.7      15.0866     0.775824E-01
   19767.4      15.0842     0.750886E-01
   20087.1      15.0818     0.726802E-01
   20412.0      15.0795     0.703366E-01
   20742.1      15.0772     0.680665E-01
   21077.6      15.0750     0.658673E-01
   21418.5      15.0728     0.637371E-01
   21765.0      15.0706     0.616736E-01
   22117.0      15.0685     0.596750E-01
   22474.7      15.0665     0.577392E-01
   22838.2      15.0645     0.558643E-01
   23207.6      15.0625     0.540484E-01
   23583.0      15.0606     0.522897E-01
   23964.4      15.0587     0.505865E-01
   24352.0      15.0568     0.489371E-01
   24745.9      15.0550     0.473398E-01
   25146.2      15.0532     0.457930E-01
   25552.9      15.0515     0.442953E-01
   25966.2      15.0498     0.428450E-01
   26386.1      15.0482     0.414407E-01
   26812.9      15.0465     0.400810E-01
   27246.6      15.0450     0.387645E-01
   27687.3      15.0434     0.374899E-01
   28135.1      15.0419     0.362558E-01
   28590.2      15.0404     0.350612E-01
   29052.6      15.0390     0.339046E-01
   29522.5      15.0377     0.327849E-01
   30000.0      15.0359     0.317011E-01
