 si, Z=14, (Energy (eV),f1,f2)
   10.0000     -9999.00      4.00688    
   10.1617     -9999.00      4.00859    
   10.3261     -9999.00      4.01031    
   10.4931     -9999.00      4.01202    
   10.6628     -9999.00      4.01374    
   10.8353     -9999.00      4.01545    
   11.0106     -9999.00      4.01717    
   11.1886     -9999.00      4.01889    
   11.3696     -9999.00      4.02061    
   11.5535     -9999.00      4.02233    
   11.7404     -9999.00      4.02405    
   11.9303     -9999.00      4.02577    
   12.1232     -9999.00      4.00013    
   12.3193     -9999.00      3.95924    
   12.5186     -9999.00      3.91877    
   12.7210     -9999.00      3.87870    
   12.9268     -9999.00      3.83905    
   13.1359     -9999.00      3.79981    
   13.3483     -9999.00      3.76096    
   13.5642     -9999.00      3.72251    
   13.7836     -9999.00      3.68446    
   14.0066     -9999.00      3.64507    
   14.2331     -9999.00      3.55014    
   14.4633     -9999.00      3.45769    
   14.6973     -9999.00      3.36763    
   14.9350     -9999.00      3.27993    
   15.1765     -9999.00      3.19451    
   15.4220     -9999.00      3.11132    
   15.6714     -9999.00      3.03029    
   15.9249     -9999.00      2.95136    
   16.1825     -9999.00      2.83110    
   16.4442     -9999.00      2.69866    
   16.7102     -9999.00      2.57241    
   16.9805     -9999.00      2.45207    
   17.2551     -9999.00      2.33736    
   17.5342     -9999.00      2.22801    
   17.8178     -9999.00      2.12378    
   18.1060     -9999.00      1.97551    
   18.3989     -9999.00      1.76134    
   18.6964     -9999.00      1.57040    
   18.9988     -9999.00      1.40015    
   19.3061     -9999.00      1.24837    
   19.6184     -9999.00      1.11303    
   19.9357     -9999.00     0.992371    
   20.2582     -9999.00     0.862309    
   20.5858     -9999.00     0.753545    
   20.9188     -9999.00     0.698853    
   21.2571     -9999.00     0.648131    
   21.6009     -9999.00     0.602534    
   21.9503     -9999.00     0.561517    
   22.3053     -9999.00     0.523292    
   22.6661     -9999.00     0.496905    
   23.0327     -9999.00     0.478083    
   23.4053     -9999.00     0.459974    
   23.7838     -9999.00     0.442552    
   24.1685     -9999.00     0.425789    
   24.5594     -9999.00     0.413106    
   24.9566     -9999.00     0.403049    
   25.3603     -9999.00     0.393236    
   25.7705     -9999.00     0.383663    
   26.1873     -9999.00     0.374323    
   26.6109     -9999.00     0.365209    
   27.0413     -9999.00     0.366284    
   27.4786     -9999.00     0.367369    
   27.9231     -9999.00     0.368458    
   28.3747     -9999.00     0.369549    
   28.8337     -9999.00     0.370644    
   29.3000      4.04139     0.371742    
   29.7739      4.01454     0.372844    
   30.2555      3.98864     0.373949    
   30.7449      3.96353     0.375057    
   31.2421      3.93824     0.376168    
   31.7475      3.91330     0.378082    
   32.2609      3.88933     0.381990    
   32.7827      3.86697     0.385940    
   33.3130      3.84562     0.389930    
   33.8518      3.82508     0.393962    
   34.3993      3.80523     0.398035    
   34.9557      3.78598     0.402151    
   35.5211      3.76728     0.406309    
   36.0956      3.74907     0.410510    
   36.6794      3.73131     0.414754    
   37.2727      3.71400     0.419042    
   37.8755      3.69713     0.423375    
   38.4882      3.68075     0.427752    
   39.1107      3.66515     0.432175    
   39.7432      3.65075     0.435542    
   40.3861      3.63600     0.437140    
   41.0393      3.61975     0.438744    
   41.7031      3.60317     0.440353    
   42.3776      3.58620     0.441968    
   43.0630      3.56885     0.443589    
   43.7595      3.55113     0.445216    
   44.4673      3.53304     0.446849    
   45.1865      3.51458     0.448488    
   45.9174      3.49586     0.450133    
   46.6600      3.47671     0.451191    
   47.4147      3.45675     0.451973    
   48.1816      3.43573     0.452756    
   48.9609      3.41387     0.453540    
   49.7528      3.39107     0.454326    
   50.5576      3.36726     0.455112    
   51.3753      3.34236     0.455901    
   52.2062      3.31547     0.456691    
   53.0506      3.28696     0.458296    
   53.9087      3.25789     0.461941    
   54.7806      3.22860     0.465616    
   55.6667      3.19848     0.469319    
   56.5670      3.16724     0.473052    
   57.4820      3.13464     0.476815    
   58.4117      3.09985     0.480608    
   59.3564      3.06106     0.484431    
   60.3165      3.02161     0.494934    
   61.2921      2.98391     0.506494    
   62.2834      2.94697     0.518325    
   63.2908      2.91044     0.530432    
   64.3145      2.87467     0.542822    
   65.3547      2.84253     0.554883    
   66.4118      2.80778     0.558960    
   67.4859      2.76948     0.563068    
   68.5775      2.72973     0.567206    
   69.6867      2.69075     0.571374    
   70.8138      2.65359     0.566787    
   71.9591      2.60604     0.552950    
   73.1230      2.54939     0.539453    
   74.3057      2.48874     0.526284    
   75.5076      2.42506     0.504753    
   76.7289      2.34452     0.477393    
   77.9699      2.24588     0.451516    
   79.2310      2.13308     0.427357    
   80.5125      2.00763     0.422615    
   81.8147      1.87992     0.417925    
   83.1380      1.74284     0.413288    
   84.4827      1.58757     0.409319    
   85.8491      1.41949     0.415940    
   87.2377      1.24204     0.422667    
   88.6487      1.04516     0.429504    
   90.0825     0.823388     0.436451    
   91.5395     0.567875     0.444919    
   93.0201     0.269396     0.456522    
   94.5246    -0.903649E-01 0.468427    
   96.0535    -0.553028     0.480642    
   97.6071     -1.22076     0.493176    
   99.1858     -2.61173     0.506036    
   99.7000     -4.36195     0.510252    
   99.9000     -4.42226      3.36544    
   100.790     -2.52757      3.48839    
   102.420     -1.89095      3.72231    
   104.077     -1.65223      3.97192    
   105.760     -1.53188      4.23827    
   107.471     -1.46339      4.52248    
   109.209     -1.42872      4.82575    
   110.975     -1.40389      5.16049    
   112.770     -1.37428      5.52407    
   114.594     -1.33243      5.91327    
   116.448     -1.27205      6.32988    
   118.331     -1.20547      6.78138    
   120.245     -1.08948      7.30531    
   122.190    -0.832441      7.86971    
   124.166    -0.419940      8.38835    
   126.175    -0.149922E-01  8.75826    
   128.215     0.463892      9.14448    
   130.289     0.980470      9.40977    
   132.397      1.46277      9.52408    
   134.538      1.87540      9.63977    
   136.714      2.28508      9.75686    
   138.925      2.73049      9.81468    
   141.172      3.13306      9.78032    
   143.456      3.44155      9.74609    
   145.776      3.72300      9.71197    
   148.134      3.97029      9.65439    
   150.530      4.12976      9.58865    
   152.964      4.21870      9.57811    
   155.439      4.30732      9.75261    
   157.953      4.49148      9.93028    
   160.507      4.71640      10.1112    
   163.103      4.97350      10.3054    
   165.742      5.28403      10.5171    
   168.422      5.71179      10.7332    
   171.146      6.19378      10.7766    
   173.915      6.64140      10.8012    
   176.727      7.05872      10.7479    
   179.586      7.47284      10.6948    
   182.491      7.89655      10.5963    
   185.442      8.28845      10.3962    
   188.442      8.59635      10.1999    
   191.489      8.86152      10.0113    
   194.587      9.10569      9.83461    
   197.734      9.33495      9.66100    
   200.932      9.54801      9.49045    
   204.182      9.74711      9.32291    
   207.485      9.93385      9.15833    
   210.840      10.1095      8.99666    
   214.251      10.2752      8.83784    
   217.716      10.4318      8.68182    
   221.237      10.5801      8.52856    
   224.816      10.7209      8.37800    
   228.452      10.8546      8.23010    
   232.147      10.9818      8.08481    
   235.902      11.1031      7.94208    
   239.717      11.2188      7.80188    
   243.595      11.3294      7.66415    
   247.535      11.4352      7.52885    
   251.538      11.5366      7.39594    
   255.607      11.6340      7.26538    
   259.741      11.7276      7.13712    
   263.942      11.8178      7.01113    
   268.211      11.9051      6.88736    
   272.549      11.9896      6.76577    
   276.957      12.0721      6.64634    
   281.437      12.1530      6.52900    
   285.989      12.2334      6.41375    
   290.615      12.3167      6.30052    
   295.315      12.4047      6.17775    
   300.092      12.4852      6.04345    
   304.945      12.5494      5.91207    
   309.878      12.6085      5.78356    
   314.890      12.6624      5.65783    
   319.983      12.7119      5.53483    
   325.158      12.7575      5.41451    
   330.418      12.7995      5.29681    
   335.762      12.8383      5.18166    
   341.192      12.8742      5.06902    
   346.711      12.9073      4.95882    
   352.319      12.9378      4.85102    
   358.017      12.9658      4.74557    
   363.808      12.9915      4.64240    
   369.692      13.0149      4.54148    
   375.672      13.0357      4.44276    
   381.748      13.0537      4.34688    
   387.922      13.0707      4.25572    
   394.197      13.0875      4.16648    
   400.573      13.1036      4.07911    
   407.052      13.1187      3.99357    
   413.635      13.1328      3.90983    
   420.326      13.1461      3.82784    
   427.124      13.1584      3.74757    
   434.032      13.1699      3.66899    
   441.052      13.1806      3.59205    
   448.186      13.1906      3.51673    
   455.435      13.1999      3.44298    
   462.802      13.2086      3.37078    
   470.287      13.2168      3.30010    
   477.894      13.2245      3.23090    
   485.623      13.2319      3.16315    
   493.478      13.2392      3.09681    
   501.459      13.2464      3.03188    
   509.570      13.2548      2.96830    
   517.812      13.2653      2.90606    
   526.187      13.2757      2.83752    
   534.698      13.2816      2.76872    
   543.346      13.2847      2.70158    
   552.134      13.2860      2.63607    
   561.065      13.2858      2.57215    
   570.139      13.2844      2.50978    
   579.361      13.2820      2.44892    
   588.732      13.2787      2.38954    
   598.254      13.2746      2.33160    
   607.930      13.2698      2.27507    
   617.763      13.2644      2.21990    
   627.755      13.2585      2.16607    
   637.908      13.2523      2.11355    
   648.226      13.2457      2.06230    
   658.711      13.2392      2.01229    
   669.365      13.2335      1.96350    
   680.191      13.2269      1.91232    
   691.193      13.2188      1.86218    
   702.372      13.2089      1.81336    
   713.733      13.1982      1.76582    
   725.277      13.1866      1.71952    
   737.008      13.1743      1.67444    
   748.928      13.1614      1.63053    
   761.042      13.1479      1.58779    
   773.351      13.1338      1.54615    
   785.859      13.1190      1.50562    
   798.570      13.1032      1.46614    
   811.486      13.0870      1.42894    
   824.611      13.0711      1.39288    
   837.949      13.0551      1.35772    
   851.502      13.0390      1.32346    
   865.274      13.0226      1.29006    
   879.269      13.0060      1.25750    
   893.491      12.9893      1.22577    
   907.943      12.9723      1.19483    
   922.628      12.9557      1.16468    
   937.551      12.9384      1.13279    
   952.715      12.9191      1.10153    
   968.124      12.8974      1.07112    
   983.783      12.8721      1.04156    
   999.695      12.8413      1.02154    
   1015.86      12.8267      1.01556    
   1032.29      12.8151     0.989441    
   1048.99      12.7990     0.963824    
   1065.96      12.7807     0.938869    
   1083.20      12.7610     0.914561    
   1100.72      12.7404     0.890814    
   1118.52      12.7187     0.867595    
   1136.61      12.6960     0.844924    
   1155.00      12.6723     0.822849    
   1173.68      12.6476     0.801358    
   1192.66      12.6219     0.780403    
   1211.95      12.5951     0.759950    
   1231.55      12.5671     0.739972    
   1251.47      12.5377     0.720520    
   1271.72      12.5069     0.701583    
   1292.29      12.4746     0.683145    
   1313.19      12.4406     0.665035    
   1334.43      12.4046     0.647377    
   1356.01      12.3663     0.630164    
   1377.94      12.3257     0.613411    
   1400.23      12.2824     0.597063    
   1422.88      12.2359     0.581081    
   1445.89      12.1858     0.565493    
   1469.28      12.1317     0.550319    
   1493.04      12.0729     0.535553    
   1517.19      12.0084     0.520574    
   1541.73      11.9368     0.505900    
   1566.67      11.8567     0.491586    
   1592.01      11.7663     0.477683    
   1617.76      11.6631     0.464172    
   1643.92      11.5433     0.451037    
   1670.51      11.4015     0.438275    
   1697.53      11.2291     0.425876    
   1724.99      11.0117     0.413830    
   1752.89      10.7215     0.401672    
   1781.24      10.2954     0.389718    
   1810.05      9.52841     0.378002    
   1838.80      2.79347     0.366838    
   1839.00      2.79516      4.15734    
   1839.32      4.53985      4.15632    
   1869.07      9.78497      4.06452    
   1899.30      10.6846      3.97475    
   1930.02      11.2284      3.88688    
   1961.24      11.6218      3.80093    
   1992.96      11.9302      3.71688    
   2025.20      12.1875      3.63698    
   2057.95      12.4066      3.55385    
   2091.24      12.5951      3.47181    
   2125.06      12.7607      3.39095    
   2159.43      12.9076      3.31123    
   2194.36      13.0391      3.23274    
   2229.85      13.1577      3.15553    
   2265.92      13.2651      3.07956    
   2302.57      13.3630      3.00498    
   2339.81      13.4523      2.93157    
   2377.66      13.5341      2.85938    
   2416.11      13.6092      2.78864    
   2455.19      13.6782      2.71913    
   2494.90      13.7417      2.65099    
   2535.26      13.8002      2.58417    
   2576.26      13.8543      2.51869    
   2617.93      13.9042      2.45445    
   2660.27      13.9503      2.39148    
   2703.30      13.9928      2.32994    
   2747.03      14.0321      2.26955    
   2791.46      14.0682      2.21044    
   2836.61      14.1017      2.15277    
   2882.49      14.1326      2.09620    
   2929.11      14.1610      2.04085    
   2976.48      14.1871      1.98681    
   3024.63      14.2112      1.93399    
   3073.55      14.2332      1.88234    
   3123.26      14.2535      1.83187    
   3173.78      14.2720      1.78256    
   3225.11      14.2889      1.73442    
   3277.27      14.3043      1.68741    
   3330.28      14.3182      1.64150    
   3384.15      14.3309      1.59669    
   3438.88      14.3423      1.55296    
   3494.50      14.3525      1.51031    
   3551.02      14.3616      1.46867    
   3608.46      14.3698      1.42807    
   3666.82      14.3769      1.38848    
   3726.13      14.3831      1.34989    
   3786.40      14.3886      1.31225    
   3847.64      14.3932      1.27555    
   3909.87      14.3970      1.23979    
   3973.11      14.4002      1.20495    
   4037.38      14.4027      1.17100    
   4102.68      14.4046      1.13791    
   4169.03      14.4060      1.10569    
   4236.46      14.4068      1.07432    
   4304.98      14.4071      1.04375    
   4374.62      14.4069      1.01398    
   4445.37      14.4064     0.985008    
   4517.27      14.4054     0.956808    
   4590.33      14.4040     0.929335    
   4664.58      14.4023     0.902611    
   4740.03      14.4002     0.876592    
   4816.69      14.3979     0.851289    
   4894.60      14.3953     0.826671    
   4973.77      14.3924     0.802700    
   5054.21      14.3893     0.779406    
   5135.96      14.3860     0.756713    
   5219.03      14.3824     0.734648    
   5303.44      14.3787     0.713218    
   5389.22      14.3748     0.692353    
   5476.39      14.3708     0.672068    
   5564.97      14.3666     0.652358    
   5654.98      14.3623     0.633172    
   5746.44      14.3579     0.614532    
   5839.39      14.3533     0.596422    
   5933.83      14.3487     0.578825    
   6029.81      14.3441     0.561692    
   6127.33      14.3393     0.545062    
   6226.44      14.3345     0.528895    
   6327.15      14.3296     0.513197    
   6429.48      14.3247     0.497896    
   6533.48      14.3198     0.483093    
   6639.15      14.3148     0.468675    
   6746.54      14.3098     0.454668    
   6855.65      14.3048     0.441069    
   6966.54      14.2998     0.427861    
   7079.22      14.2948     0.415029    
   7193.72      14.2898     0.402564    
   7310.07      14.2847     0.390462    
   7428.31      14.2798     0.378704    
   7548.45      14.2748     0.367289    
   7670.54      14.2698     0.356207    
   7794.61      14.2649     0.345446    
   7920.68      14.2600     0.334993    
   8048.79      14.2551     0.324848    
   8178.98      14.2503     0.314994    
   8311.26      14.2455     0.305432    
   8445.69      14.2407     0.296153    
   8582.29      14.2360     0.287138    
   8721.11      14.2313     0.278388    
   8862.16      14.2267     0.269899    
   9005.50      14.2221     0.261658    
   9151.16      14.2176     0.253660    
   9299.17      14.2131     0.245895    
   9449.58      14.2086     0.238363    
   9602.42      14.2043     0.231050    
   9757.73      14.1999     0.223956    
   9915.55      14.1957     0.217070    
   10075.9      14.1914     0.210390    
   10238.9      14.1873     0.203909    
   10404.5      14.1832     0.197620    
   10572.8      14.1792     0.191518    
   10743.8      14.1752     0.185598    
   10917.6      14.1712     0.179855    
   11094.2      14.1674     0.174283    
   11273.6      14.1636     0.168878    
   11455.9      14.1598     0.163634    
   11641.2      14.1561     0.158548    
   11829.5      14.1525     0.153614    
   12020.8      14.1489     0.148828    
   12215.3      14.1454     0.144186    
   12412.8      14.1420     0.139684    
   12613.6      14.1386     0.135317    
   12817.6      14.1353     0.131082    
   13025.0      14.1320     0.126975    
   13235.6      14.1288     0.122991    
   13449.7      14.1256     0.119128    
   13667.2      14.1225     0.115381    
   13888.3      14.1194     0.111748    
   14112.9      14.1165     0.108225    
   14341.2      14.1135     0.104809    
   14573.1      14.1106     0.101496    
   14808.9      14.1078     0.982836E-01
   15048.4      14.1050     0.951689E-01
   15291.8      14.1023     0.921489E-01
   15539.1      14.0996     0.892208E-01
   15790.4      14.0970     0.863817E-01
   16045.8      14.0945     0.836291E-01
   16305.4      14.0919     0.809604E-01
   16569.1      14.0895     0.783731E-01
   16837.1      14.0870     0.758647E-01
   17109.4      14.0847     0.734330E-01
   17386.1      14.0824     0.710755E-01
   17667.4      14.0801     0.687901E-01
   17953.1      14.0779     0.665747E-01
   18243.5      14.0757     0.644270E-01
   18538.6      14.0735     0.623451E-01
   18838.4      14.0714     0.603270E-01
   19143.1      14.0694     0.583708E-01
   19452.7      14.0674     0.564747E-01
   19767.4      14.0654     0.546367E-01
   20087.1      14.0635     0.528536E-01
   20412.0      14.0616     0.511283E-01
   20742.1      14.0597     0.494580E-01
   21077.6      14.0579     0.478407E-01
   21418.5      14.0561     0.462752E-01
   21765.0      14.0544     0.447595E-01
   22117.0      14.0527     0.432922E-01
   22474.7      14.0510     0.418718E-01
   22838.2      14.0494     0.404967E-01
   23207.6      14.0478     0.391657E-01
   23583.0      14.0463     0.378772E-01
   23964.4      14.0448     0.366301E-01
   24352.0      14.0433     0.354228E-01
   24745.9      14.0418     0.342544E-01
   25146.2      14.0404     0.331234E-01
   25552.9      14.0390     0.320287E-01
   25966.2      14.0377     0.309693E-01
   26386.1      14.0363     0.299439E-01
   26812.9      14.0351     0.289515E-01
   27246.6      14.0338     0.279911E-01
   27687.3      14.0326     0.270617E-01
   28135.1      14.0314     0.261622E-01
   28590.2      14.0302     0.252918E-01
   29052.6      14.0290     0.244496E-01
   29522.5      14.0282     0.236345E-01
   30000.0      14.0266     0.228459E-01
